### 
### CWL: 2480nm ± 0.2% (4.9nm)
### FWHM: 60nm ± 0.2% (4.9nm)
### Peak %T: >80%
## Wavelength[micron] Transmission[%]
2.3800 0.00389 
2.3801 0.00393 
2.3802 0.00396 
2.3803 0.00400 
2.3804 0.00403 
2.3805 0.00407 
2.3806 0.00411 
2.3807 0.00414 
2.3808 0.00418 
2.3809 0.00422 
2.3810 0.00426 
2.3811 0.00430 
2.3812 0.00433 
2.3813 0.00437 
2.3814 0.00441 
2.3815 0.00445 
2.3816 0.00449 
2.3817 0.00453 
2.3818 0.00458 
2.3819 0.00462 
2.3820 0.00466 
2.3821 0.00470 
2.3822 0.00475 
2.3823 0.00479 
2.3824 0.00483 
2.3825 0.00488 
2.3826 0.00492 
2.3827 0.00497 
2.3828 0.00501 
2.3829 0.00506 
2.3830 0.00511 
2.3831 0.00515 
2.3832 0.00520 
2.3833 0.00525 
2.3834 0.00530 
2.3835 0.00535 
2.3836 0.00539 
2.3837 0.00544 
2.3838 0.00550 
2.3839 0.00555 
2.3840 0.00560 
2.3841 0.00565 
2.3842 0.00570 
2.3843 0.00576 
2.3844 0.00581 
2.3845 0.00586 
2.3846 0.00592 
2.3847 0.00597 
2.3848 0.00603 
2.3849 0.00609 
2.3850 0.00614 
2.3851 0.00620 
2.3852 0.00626 
2.3853 0.00632 
2.3854 0.00638 
2.3855 0.00644 
2.3856 0.00650 
2.3857 0.00656 
2.3858 0.00662 
2.3859 0.00669 
2.3860 0.00675 
2.3861 0.00681 
2.3862 0.00688 
2.3863 0.00694 
2.3864 0.00701 
2.3865 0.00708 
2.3866 0.00714 
2.3867 0.00721 
2.3868 0.00728 
2.3869 0.00735 
2.3870 0.00742 
2.3871 0.00749 
2.3872 0.00756 
2.3873 0.00764 
2.3874 0.00771 
2.3875 0.00778 
2.3876 0.00786 
2.3877 0.00794 
2.3878 0.00801 
2.3879 0.00809 
2.3880 0.00817 
2.3881 0.00825 
2.3882 0.00833 
2.3883 0.00841 
2.3884 0.00849 
2.3885 0.00857 
2.3886 0.00866 
2.3887 0.00874 
2.3888 0.00882 
2.3889 0.00891 
2.3890 0.00900 
2.3891 0.00909 
2.3892 0.00917 
2.3893 0.00926 
2.3894 0.00936 
2.3895 0.00945 
2.3896 0.00954 
2.3897 0.00963 
2.3898 0.00973 
2.3899 0.00983 
2.3900 0.00992 
2.3901 0.01002 
2.3902 0.01012 
2.3903 0.01022 
2.3904 0.01032 
2.3905 0.01042 
2.3906 0.01053 
2.3907 0.01063 
2.3908 0.01074 
2.3909 0.01084 
2.3910 0.01095 
2.3911 0.01106 
2.3912 0.01117 
2.3913 0.01128 
2.3914 0.01140 
2.3915 0.01151 
2.3916 0.01163 
2.3917 0.01174 
2.3918 0.01186 
2.3919 0.01198 
2.3920 0.01210 
2.3921 0.01222 
2.3922 0.01235 
2.3923 0.01247 
2.3924 0.01260 
2.3925 0.01272 
2.3926 0.01285 
2.3927 0.01298 
2.3928 0.01312 
2.3929 0.01325 
2.3930 0.01338 
2.3931 0.01352 
2.3932 0.01366 
2.3933 0.01380 
2.3934 0.01394 
2.3935 0.01408 
2.3936 0.01423 
2.3937 0.01437 
2.3938 0.01452 
2.3939 0.01467 
2.3940 0.01482 
2.3941 0.01497 
2.3942 0.01513 
2.3943 0.01528 
2.3944 0.01544 
2.3945 0.01560 
2.3946 0.01576 
2.3947 0.01592 
2.3948 0.01609 
2.3949 0.01626 
2.3950 0.01642 
2.3951 0.01660 
2.3952 0.01677 
2.3953 0.01694 
2.3954 0.01712 
2.3955 0.01730 
2.3956 0.01748 
2.3957 0.01766 
2.3958 0.01785 
2.3959 0.01804 
2.3960 0.01822 
2.3961 0.01842 
2.3962 0.01861 
2.3963 0.01881 
2.3964 0.01900 
2.3965 0.01920 
2.3966 0.01941 
2.3967 0.01961 
2.3968 0.01982 
2.3969 0.02003 
2.3970 0.02024 
2.3971 0.02046 
2.3972 0.02068 
2.3973 0.02090 
2.3974 0.02112 
2.3975 0.02134 
2.3976 0.02157 
2.3977 0.02180 
2.3978 0.02204 
2.3979 0.02227 
2.3980 0.02251 
2.3981 0.02275 
2.3982 0.02300 
2.3983 0.02325 
2.3984 0.02350 
2.3985 0.02375 
2.3986 0.02401 
2.3987 0.02427 
2.3988 0.02453 
2.3989 0.02479 
2.3990 0.02506 
2.3991 0.02533 
2.3992 0.02561 
2.3993 0.02589 
2.3994 0.02617 
2.3995 0.02646 
2.3996 0.02674 
2.3997 0.02704 
2.3998 0.02733 
2.3999 0.02763 
2.4000 0.02793 
2.4001 0.02824 
2.4002 0.02855 
2.4003 0.02887 
2.4004 0.02918 
2.4005 0.02950 
2.4006 0.02983 
2.4007 0.03016 
2.4008 0.03049 
2.4009 0.03083 
2.4010 0.03117 
2.4011 0.03152 
2.4012 0.03187 
2.4013 0.03222 
2.4014 0.03258 
2.4015 0.03294 
2.4016 0.03331 
2.4017 0.03368 
2.4018 0.03406 
2.4019 0.03444 
2.4020 0.03483 
2.4021 0.03522 
2.4022 0.03561 
2.4023 0.03602 
2.4024 0.03642 
2.4025 0.03683 
2.4026 0.03725 
2.4027 0.03767 
2.4028 0.03809 
2.4029 0.03852 
2.4030 0.03896 
2.4031 0.03940 
2.4032 0.03985 
2.4033 0.04030 
2.4034 0.04076 
2.4035 0.04123 
2.4036 0.04170 
2.4037 0.04217 
2.4038 0.04266 
2.4039 0.04314 
2.4040 0.04364 
2.4041 0.04414 
2.4042 0.04465 
2.4043 0.04516 
2.4044 0.04568 
2.4045 0.04621 
2.4046 0.04674 
2.4047 0.04728 
2.4048 0.04783 
2.4049 0.04838 
2.4050 0.04894 
2.4051 0.04951 
2.4052 0.05008 
2.4053 0.05067 
2.4054 0.05126 
2.4055 0.05186 
2.4056 0.05246 
2.4057 0.05307 
2.4058 0.05369 
2.4059 0.05432 
2.4060 0.05496 
2.4061 0.05561 
2.4062 0.05626 
2.4063 0.05692 
2.4064 0.05759 
2.4065 0.05827 
2.4066 0.05896 
2.4067 0.05966 
2.4068 0.06036 
2.4069 0.06108 
2.4070 0.06180 
2.4071 0.06254 
2.4072 0.06328 
2.4073 0.06403 
2.4074 0.06480 
2.4075 0.06557 
2.4076 0.06635 
2.4077 0.06715 
2.4078 0.06795 
2.4079 0.06877 
2.4080 0.06959 
2.4081 0.07043 
2.4082 0.07128 
2.4083 0.07213 
2.4084 0.07300 
2.4085 0.07389 
2.4086 0.07478 
2.4087 0.07568 
2.4088 0.07660 
2.4089 0.07753 
2.4090 0.07847 
2.4091 0.07943 
2.4092 0.08039 
2.4093 0.08137 
2.4094 0.08237 
2.4095 0.08337 
2.4096 0.08439 
2.4097 0.08543 
2.4098 0.08648 
2.4099 0.08754 
2.4100 0.08861 
2.4101 0.08970 
2.4102 0.09081 
2.4103 0.09193 
2.4104 0.09306 
2.4105 0.09422 
2.4106 0.09538 
2.4107 0.09657 
2.4108 0.09776 
2.4109 0.09898 
2.4110 0.10021 
2.4111 0.10146 
2.4112 0.10272 
2.4113 0.10401 
2.4114 0.10531 
2.4115 0.10663 
2.4116 0.10796 
2.4117 0.10932 
2.4118 0.11069 
2.4119 0.11208 
2.4120 0.11350 
2.4121 0.11493 
2.4122 0.11638 
2.4123 0.11785 
2.4124 0.11934 
2.4125 0.12086 
2.4126 0.12239 
2.4127 0.12394 
2.4128 0.12552 
2.4129 0.12712 
2.4130 0.12874 
2.4131 0.13039 
2.4132 0.13205 
2.4133 0.13374 
2.4134 0.13545 
2.4135 0.13719 
2.4136 0.13896 
2.4137 0.14074 
2.4138 0.14256 
2.4139 0.14439 
2.4140 0.14626 
2.4141 0.14815 
2.4142 0.15007 
2.4143 0.15202 
2.4144 0.15399 
2.4145 0.15599 
2.4146 0.15802 
2.4147 0.16008 
2.4148 0.16217 
2.4149 0.16428 
2.4150 0.16643 
2.4151 0.16861 
2.4152 0.17082 
2.4153 0.17307 
2.4154 0.17534 
2.4155 0.17765 
2.4156 0.17999 
2.4157 0.18236 
2.4158 0.18477 
2.4159 0.18722 
2.4160 0.18970 
2.4161 0.19222 
2.4162 0.19476 
2.4163 0.19736 
2.4164 0.19998 
2.4165 0.20265 
2.4166 0.20536 
2.4167 0.20810 
2.4168 0.21089 
2.4169 0.21371 
2.4170 0.21658 
2.4171 0.21949 
2.4172 0.22244 
2.4173 0.22544 
2.4174 0.22848 
2.4175 0.23156 
2.4176 0.23470 
2.4177 0.23787 
2.4178 0.24110 
2.4179 0.24437 
2.4180 0.24770 
2.4181 0.25107 
2.4182 0.25449 
2.4183 0.25796 
2.4184 0.26148 
2.4185 0.26507 
2.4186 0.26870 
2.4187 0.27238 
2.4188 0.27613 
2.4189 0.27992 
2.4190 0.28378 
2.4191 0.28770 
2.4192 0.29167 
2.4193 0.29571 
2.4194 0.29980 
2.4195 0.30396 
2.4196 0.30818 
2.4197 0.31246 
2.4198 0.31682 
2.4199 0.32123 
2.4200 0.32572 
2.4201 0.33027 
2.4202 0.33488 
2.4203 0.33957 
2.4204 0.34432 
2.4205 0.34916 
2.4206 0.35407 
2.4207 0.35904 
2.4208 0.36411 
2.4209 0.36924 
2.4210 0.37446 
2.4211 0.37976 
2.4212 0.38514 
2.4213 0.39061 
2.4214 0.39615 
2.4215 0.40179 
2.4216 0.40752 
2.4217 0.41332 
2.4218 0.41923 
2.4219 0.42522 
2.4220 0.43132 
2.4221 0.43751 
2.4222 0.44378 
2.4223 0.45017 
2.4224 0.45664 
2.4225 0.46324 
2.4226 0.46993 
2.4227 0.47672 
2.4228 0.48363 
2.4229 0.49063 
2.4230 0.49776 
2.4231 0.50501 
2.4232 0.51235 
2.4233 0.51983 
2.4234 0.52741 
2.4235 0.53513 
2.4236 0.54297 
2.4237 0.55092 
2.4238 0.55902 
2.4239 0.56723 
2.4240 0.57559 
2.4241 0.58409 
2.4242 0.59270 
2.4243 0.60147 
2.4244 0.61036 
2.4245 0.61942 
2.4246 0.62863 
2.4247 0.63796 
2.4248 0.64747 
2.4249 0.65711 
2.4250 0.66693 
2.4251 0.67692 
2.4252 0.68704 
2.4253 0.69735 
2.4254 0.70781 
2.4255 0.71846 
2.4256 0.72929 
2.4257 0.74027 
2.4258 0.75146 
2.4259 0.76281 
2.4260 0.77438 
2.4261 0.78613 
2.4262 0.79805 
2.4263 0.81020 
2.4264 0.82253 
2.4265 0.83508 
2.4266 0.84785 
2.4267 0.86080 
2.4268 0.87400 
2.4269 0.88739 
2.4270 0.90103 
2.4271 0.91490 
2.4272 0.92898 
2.4273 0.94332 
2.4274 0.95788 
2.4275 0.97271 
2.4276 0.98779 
2.4277 1.00310 
2.4278 1.01870 
2.4279 1.03453 
2.4280 1.05066 
2.4281 1.06707 
2.4282 1.08372 
2.4283 1.10070 
2.4284 1.11792 
2.4285 1.13548 
2.4286 1.15335 
2.4287 1.17147 
2.4288 1.18995 
2.4289 1.20871 
2.4290 1.22783 
2.4291 1.24729 
2.4292 1.26703 
2.4293 1.28716 
2.4294 1.30759 
2.4295 1.32843 
2.4296 1.34963 
2.4297 1.37115 
2.4298 1.39309 
2.4299 1.41536 
2.4300 1.43808 
2.4301 1.46119 
2.4302 1.48465 
2.4303 1.50858 
2.4304 1.53287 
2.4305 1.55765 
2.4306 1.58286 
2.4307 1.60846 
2.4308 1.63457 
2.4309 1.66107 
2.4310 1.68812 
2.4311 1.71564 
2.4312 1.74358 
2.4313 1.77208 
2.4314 1.80102 
2.4315 1.83055 
2.4316 1.86060 
2.4317 1.89112 
2.4318 1.92225 
2.4319 1.95387 
2.4320 1.98613 
2.4321 2.01896 
2.4322 2.05231 
2.4323 2.08633 
2.4324 2.12089 
2.4325 2.15615 
2.4326 2.19205 
2.4327 2.22850 
2.4328 2.26571 
2.4329 2.30349 
2.4330 2.34205 
2.4331 2.38132 
2.4332 2.42119 
2.4333 2.46189 
2.4334 2.50323 
2.4335 2.54542 
2.4336 2.58838 
2.4337 2.63202 
2.4338 2.67657 
2.4339 2.72181 
2.4340 2.76800 
2.4341 2.81503 
2.4342 2.86281 
2.4343 2.91158 
2.4344 2.96113 
2.4345 3.01171 
2.4346 3.06322 
2.4347 3.11555 
2.4348 3.16898 
2.4349 3.22326 
2.4350 3.27867 
2.4351 3.33511 
2.4352 3.39245 
2.4353 3.45100 
2.4354 3.51048 
2.4355 3.57121 
2.4356 3.63308 
2.4357 3.69593 
2.4358 3.76011 
2.4359 3.82532 
2.4360 3.89191 
2.4361 3.95974 
2.4362 4.02866 
2.4363 4.09903 
2.4364 4.17055 
2.4365 4.24357 
2.4366 4.31796 
2.4367 4.39355 
2.4368 4.47074 
2.4369 4.54919 
2.4370 4.62929 
2.4371 4.71090 
2.4372 4.79382 
2.4373 4.87851 
2.4374 4.96457 
2.4375 5.05246 
2.4376 5.14199 
2.4377 5.23299 
2.4378 5.32591 
2.4379 5.42034 
2.4380 5.51678 
2.4381 5.61503 
2.4382 5.71487 
2.4383 5.81684 
2.4384 5.92046 
2.4385 6.02629 
2.4386 6.13410 
2.4387 6.24366 
2.4388 6.35555 
2.4389 6.46926 
2.4390 6.58538 
2.4391 6.70367 
2.4392 6.82389 
2.4393 6.94666 
2.4394 7.07141 
2.4395 7.19881 
2.4396 7.32859 
2.4397 7.46047 
2.4398 7.59515 
2.4399 7.73199 
2.4400 7.87173 
2.4401 8.01428 
2.4402 8.15913 
2.4403 8.30703 
2.4404 8.45732 
2.4405 8.61077 
2.4406 8.76707 
2.4407 8.92588 
2.4408 9.08802 
2.4409 9.25275 
2.4410 9.42093 
2.4411 9.59221 
2.4412 9.76622 
2.4413 9.94386 
2.4414 10.12431 
2.4415 10.30851 
2.4416 10.49608 
2.4417 10.68660 
2.4418 10.88105 
2.4419 11.07856 
2.4420 11.28013 
2.4421 11.48534 
2.4422 11.69374 
2.4423 11.90641 
2.4424 12.12235 
2.4425 12.34270 
2.4426 12.56697 
2.4427 12.79467 
2.4428 13.02696 
2.4429 13.26278 
2.4430 13.50334 
2.4431 13.74811 
2.4432 13.99655 
2.4433 14.24993 
2.4434 14.50706 
2.4435 14.76928 
2.4436 15.03600 
2.4437 15.30662 
2.4438 15.58252 
2.4439 15.86241 
2.4440 16.14772 
2.4441 16.43781 
2.4442 16.73203 
2.4443 17.03186 
2.4444 17.33589 
2.4445 17.64567 
2.4446 17.96050 
2.4447 18.27965 
2.4448 18.60473 
2.4449 18.93421 
2.4450 19.26973 
2.4451 19.61055 
2.4452 19.95586 
2.4453 20.30738 
2.4454 20.66346 
2.4455 21.02585 
2.4456 21.39374 
2.4457 21.76625 
2.4458 22.14522 
2.4459 22.52885 
2.4460 22.91902 
2.4461 23.31484 
2.4462 23.71535 
2.4463 24.12251 
2.4464 24.53436 
2.4465 24.95293 
2.4466 25.37724 
2.4467 25.80622 
2.4468 26.24198 
2.4469 26.68240 
2.4470 27.12962 
2.4471 27.58258 
2.4472 28.04013 
2.4473 28.50448 
2.4474 28.97337 
2.4475 29.44907 
2.4476 29.93039 
2.4477 30.41611 
2.4478 30.90859 
2.4479 31.40535 
2.4480 31.90880 
2.4481 32.41768 
2.4482 32.93064 
2.4483 33.45017 
2.4484 33.97365 
2.4485 34.50356 
2.4486 35.03855 
2.4487 35.57723 
2.4488 36.12213 
2.4489 36.67051 
2.4490 37.22493 
2.4491 37.78397 
2.4492 38.34615 
2.4493 38.91407 
2.4494 39.48486 
2.4495 40.06118 
2.4496 40.64150 
2.4497 41.22427 
2.4498 41.81217 
2.4499 42.40219 
2.4500 42.99709 
2.4501 43.59524 
2.4502 44.19501 
2.4503 44.79918 
2.4504 45.40460 
2.4505 46.01407 
2.4506 46.62594 
2.4507 47.23849 
2.4508 47.85455 
2.4509 48.47091 
2.4510 49.09039 
2.4511 49.71126 
2.4512 50.33181 
2.4513 50.95486 
2.4514 51.57718 
2.4515 52.20156 
2.4516 52.82627 
2.4517 53.44958 
2.4518 54.07431 
2.4519 54.69719 
2.4520 55.32103 
2.4521 55.94409 
2.4522 56.56464 
2.4523 57.18545 
2.4524 57.80331 
2.4525 58.42098 
2.4526 59.03674 
2.4527 59.64885 
2.4528 60.26012 
2.4529 60.86730 
2.4530 61.47318 
2.4531 62.07604 
2.4532 62.67418 
2.4533 63.27035 
2.4534 63.86142 
2.4535 64.45007 
2.4536 65.03465 
2.4537 65.61356 
2.4538 66.18943 
2.4539 66.75927 
2.4540 67.32567 
2.4541 67.88706 
2.4542 68.44193 
2.4543 68.99279 
2.4544 69.53682 
2.4545 70.07652 
2.4546 70.61039 
2.4547 71.13703 
2.4548 71.65885 
2.4549 72.17319 
2.4550 72.68243 
2.4551 73.18520 
2.4552 73.68018 
2.4553 74.16967 
2.4554 74.65121 
2.4555 75.12705 
2.4556 75.59593 
2.4557 76.05665 
2.4558 76.51138 
2.4559 76.95787 
2.4560 77.39822 
2.4561 77.83129 
2.4562 78.25601 
2.4563 78.67442 
2.4564 79.08444 
2.4565 79.48806 
2.4566 79.88426 
2.4567 80.27208 
2.4568 80.65341 
2.4569 81.02641 
2.4570 81.39288 
2.4571 81.75195 
2.4572 82.10276 
2.4573 82.44706 
2.4574 82.78320 
2.4575 83.11287 
2.4576 83.43526 
2.4577 83.74967 
2.4578 84.05768 
2.4579 84.35783 
2.4580 84.65166 
2.4581 84.93848 
2.4582 85.21768 
2.4583 85.49071 
2.4584 85.75629 
2.4585 86.01579 
2.4586 86.26866 
2.4587 86.51436 
2.4588 86.75419 
2.4589 86.98705 
2.4590 87.21419 
2.4591 87.43510 
2.4592 87.64936 
2.4593 87.85812 
2.4594 88.06046 
2.4595 88.25745 
2.4596 88.44870 
2.4597 88.63386 
2.4598 88.81393 
2.4599 88.98814 
2.4600 89.15744 
2.4601 89.32129 
2.4602 89.47964 
2.4603 89.63335 
2.4604 89.78179 
2.4605 89.92578 
2.4606 90.06506 
2.4607 90.19939 
2.4608 90.32955 
2.4609 90.45499 
2.4610 90.57645 
2.4611 90.69369 
2.4612 90.80655 
2.4613 90.91568 
2.4614 91.02065 
2.4615 91.12207 
2.4616 91.21977 
2.4617 91.31362 
2.4618 91.40419 
2.4619 91.49111 
2.4620 91.57491 
2.4621 91.65545 
2.4622 91.73266 
2.4623 91.80698 
2.4624 91.87816 
2.4625 91.94662 
2.4626 92.01225 
2.4627 92.07502 
2.4628 92.13530 
2.4629 92.19288 
2.4630 92.24811 
2.4631 92.30093 
2.4632 92.35131 
2.4633 92.39956 
2.4634 92.44551 
2.4635 92.48947 
2.4636 92.53139 
2.4637 92.57125 
2.4638 92.60931 
2.4639 92.64544 
2.4640 92.67989 
2.4641 92.71265 
2.4642 92.74368 
2.4643 92.77320 
2.4644 92.80113 
2.4645 92.82767 
2.4646 92.85280 
2.4647 92.87650 
2.4648 92.89898 
2.4649 92.92015 
2.4650 92.94018 
2.4651 92.95906 
2.4652 92.97680 
2.4653 92.99353 
2.4654 93.00922 
2.4655 93.02398 
2.4656 93.03782 
2.4657 93.05076 
2.4658 93.06289 
2.4659 93.07420 
2.4660 93.08478 
2.4661 93.09464 
2.4662 93.10379 
2.4663 93.11232 
2.4664 93.12022 
2.4665 93.12755 
2.4666 93.13433 
2.4667 93.14059 
2.4668 93.14636 
2.4669 93.15166 
2.4670 93.15656 
2.4671 93.16103 
2.4672 93.16514 
2.4673 93.16888 
2.4674 93.17230 
2.4675 93.17542 
2.4676 93.17826 
2.4677 93.18083 
2.4678 93.18317 
2.4679 93.18530 
2.4680 93.18721 
2.4681 93.18895 
2.4682 93.19054 
2.4683 93.19196 
2.4684 93.19327 
2.4685 93.19446 
2.4686 93.19556 
2.4687 93.19657 
2.4688 93.19751 
2.4689 93.19840 
2.4690 93.19925 
2.4691 93.20007 
2.4692 93.20086 
2.4693 93.20165 
2.4694 93.20244 
2.4695 93.20324 
2.4696 93.20407 
2.4697 93.20492 
2.4698 93.20582 
2.4699 93.20676 
2.4700 93.20776 
2.4701 93.20882 
2.4702 93.20995 
2.4703 93.21116 
2.4704 93.21244 
2.4705 93.21381 
2.4706 93.21527 
2.4707 93.21683 
2.4708 93.21849 
2.4709 93.22025 
2.4710 93.22212 
2.4711 93.22411 
2.4712 93.22620 
2.4713 93.22841 
2.4714 93.23074 
2.4715 93.23320 
2.4716 93.23577 
2.4717 93.23847 
2.4718 93.24129 
2.4719 93.24425 
2.4720 93.24733 
2.4721 93.25054 
2.4722 93.25387 
2.4723 93.25734 
2.4724 93.26093 
2.4725 93.26465 
2.4726 93.26850 
2.4727 93.27247 
2.4728 93.27657 
2.4729 93.28078 
2.4730 93.28514 
2.4731 93.28961 
2.4732 93.29419 
2.4733 93.29890 
2.4734 93.30372 
2.4735 93.30866 
2.4736 93.31372 
2.4737 93.31887 
2.4738 93.32414 
2.4739 93.32951 
2.4740 93.33498 
2.4741 93.34056 
2.4742 93.34623 
2.4743 93.35200 
2.4744 93.35784 
2.4745 93.36379 
2.4746 93.36983 
2.4747 93.37592 
2.4748 93.38211 
2.4749 93.38836 
2.4750 93.39470 
2.4751 93.40111 
2.4752 93.40755 
2.4753 93.41408 
2.4754 93.42065 
2.4755 93.42728 
2.4756 93.43397 
2.4757 93.44068 
2.4758 93.44746 
2.4759 93.45424 
2.4760 93.46108 
2.4761 93.46796 
2.4762 93.47484 
2.4763 93.48176 
2.4764 93.48867 
2.4765 93.49562 
2.4766 93.50258 
2.4767 93.50952 
2.4768 93.51649 
2.4769 93.52343 
2.4770 93.53039 
2.4771 93.53733 
2.4772 93.54424 
2.4773 93.55116 
2.4774 93.55803 
2.4775 93.56490 
2.4776 93.57172 
2.4777 93.57850 
2.4778 93.58526 
2.4779 93.59196 
2.4780 93.59863 
2.4781 93.60525 
2.4782 93.61181 
2.4783 93.61832 
2.4784 93.62475 
2.4785 93.63113 
2.4786 93.63745 
2.4787 93.64368 
2.4788 93.64984 
2.4789 93.65592 
2.4790 93.66192 
2.4791 93.66785 
2.4792 93.67367 
2.4793 93.67940 
2.4794 93.68503 
2.4795 93.69057 
2.4796 93.69601 
2.4797 93.70134 
2.4798 93.70657 
2.4799 93.71167 
2.4800 93.71667 
2.4801 93.72156 
2.4802 93.72631 
2.4803 93.73096 
2.4804 93.73546 
2.4805 93.73985 
2.4806 93.74410 
2.4807 93.74822 
2.4808 93.75221 
2.4809 93.75606 
2.4810 93.75977 
2.4811 93.76334 
2.4812 93.76675 
2.4813 93.77003 
2.4814 93.77316 
2.4815 93.77614 
2.4816 93.77896 
2.4817 93.78163 
2.4818 93.78415 
2.4819 93.78650 
2.4820 93.78870 
2.4821 93.79075 
2.4822 93.79263 
2.4823 93.79434 
2.4824 93.79590 
2.4825 93.79729 
2.4826 93.79852 
2.4827 93.79957 
2.4828 93.80045 
2.4829 93.80117 
2.4830 93.80173 
2.4831 93.80211 
2.4832 93.80231 
2.4833 93.80235 
2.4834 93.80222 
2.4835 93.80192 
2.4836 93.80145 
2.4837 93.80080 
2.4838 93.79998 
2.4839 93.79899 
2.4840 93.79783 
2.4841 93.79649 
2.4842 93.79499 
2.4843 93.79331 
2.4844 93.79147 
2.4845 93.78946 
2.4846 93.78727 
2.4847 93.78492 
2.4848 93.78240 
2.4849 93.77972 
2.4850 93.77687 
2.4851 93.77385 
2.4852 93.77068 
2.4853 93.76733 
2.4854 93.76383 
2.4855 93.76017 
2.4856 93.75635 
2.4857 93.75237 
2.4858 93.74825 
2.4859 93.74397 
2.4860 93.73952 
2.4861 93.73494 
2.4862 93.73021 
2.4863 93.72533 
2.4864 93.72031 
2.4865 93.71515 
2.4866 93.70985 
2.4867 93.70441 
2.4868 93.69884 
2.4869 93.69314 
2.4870 93.68730 
2.4871 93.68134 
2.4872 93.67526 
2.4873 93.66905 
2.4874 93.66273 
2.4875 93.65629 
2.4876 93.64973 
2.4877 93.64307 
2.4878 93.63630 
2.4879 93.62944 
2.4880 93.62246 
2.4881 93.61538 
2.4882 93.60822 
2.4883 93.60096 
2.4884 93.59363 
2.4885 93.58619 
2.4886 93.57867 
2.4887 93.57110 
2.4888 93.56343 
2.4889 93.55571 
2.4890 93.54790 
2.4891 93.54004 
2.4892 93.53213 
2.4893 93.52415 
2.4894 93.51614 
2.4895 93.50805 
2.4896 93.49992 
2.4897 93.49178 
2.4898 93.48357 
2.4899 93.47536 
2.4900 93.46709 
2.4901 93.45879 
2.4902 93.45050 
2.4903 93.44217 
2.4904 93.43385 
2.4905 93.42549 
2.4906 93.41713 
2.4907 93.40879 
2.4908 93.40043 
2.4909 93.39210 
2.4910 93.38375 
2.4911 93.37542 
2.4912 93.36713 
2.4913 93.35884 
2.4914 93.35059 
2.4915 93.34235 
2.4916 93.33414 
2.4917 93.32598 
2.4918 93.31786 
2.4919 93.30978 
2.4920 93.30173 
2.4921 93.29375 
2.4922 93.28582 
2.4923 93.27793 
2.4924 93.27013 
2.4925 93.26236 
2.4926 93.25465 
2.4927 93.24705 
2.4928 93.23949 
2.4929 93.23202 
2.4930 93.22460 
2.4931 93.21727 
2.4932 93.21004 
2.4933 93.20287 
2.4934 93.19581 
2.4935 93.18881 
2.4936 93.18191 
2.4937 93.17511 
2.4938 93.16839 
2.4939 93.16178 
2.4940 93.15525 
2.4941 93.14882 
2.4942 93.14249 
2.4943 93.13625 
2.4944 93.13013 
2.4945 93.12408 
2.4946 93.11814 
2.4947 93.11230 
2.4948 93.10656 
2.4949 93.10093 
2.4950 93.09538 
2.4951 93.08992 
2.4952 93.08457 
2.4953 93.07931 
2.4954 93.07413 
2.4955 93.06905 
2.4956 93.06405 
2.4957 93.05914 
2.4958 93.05429 
2.4959 93.04955 
2.4960 93.04485 
2.4961 93.04024 
2.4962 93.03568 
2.4963 93.03119 
2.4964 93.02676 
2.4965 93.02236 
2.4966 93.01801 
2.4967 93.01370 
2.4968 93.00941 
2.4969 93.00517 
2.4970 93.00092 
2.4971 92.99667 
2.4972 92.99243 
2.4973 92.98817 
2.4974 92.98391 
2.4975 92.97959 
2.4976 92.97523 
2.4977 92.97084 
2.4978 92.96637 
2.4979 92.96182 
2.4980 92.95718 
2.4981 92.95243 
2.4982 92.94758 
2.4983 92.94258 
2.4984 92.93744 
2.4985 92.93212 
2.4986 92.92663 
2.4987 92.92094 
2.4988 92.91503 
2.4989 92.90890 
2.4990 92.90249 
2.4991 92.89580 
2.4992 92.88883 
2.4993 92.88153 
2.4994 92.87391 
2.4995 92.86590 
2.4996 92.85749 
2.4997 92.84869 
2.4998 92.83944 
2.4999 92.82973 
2.5000 92.81950 
2.5001 92.80879 
2.5002 92.79756 
2.5003 92.78571 
2.5004 92.77328 
2.5005 92.76018 
2.5006 92.74638 
2.5007 92.73192 
2.5008 92.71666 
2.5009 92.70065 
2.5010 92.68378 
2.5011 92.66606 
2.5012 92.64747 
2.5013 92.62789 
2.5014 92.60738 
2.5015 92.58579 
2.5016 92.56313 
2.5017 92.53940 
2.5018 92.51445 
2.5019 92.48836 
2.5020 92.46094 
2.5021 92.43221 
2.5022 92.40218 
2.5023 92.37067 
2.5024 92.33778 
2.5025 92.30328 
2.5026 92.26720 
2.5027 92.22957 
2.5028 92.19016 
2.5029 92.14909 
2.5030 92.10609 
2.5031 92.06123 
2.5032 92.01453 
2.5033 91.96571 
2.5034 91.91494 
2.5035 91.86190 
2.5036 91.80666 
2.5037 91.74927 
2.5038 91.68938 
2.5039 91.62723 
2.5040 91.56242 
2.5041 91.49505 
2.5042 91.42519 
2.5043 91.35244 
2.5044 91.27706 
2.5045 91.19862 
2.5046 91.11722 
2.5047 91.03297 
2.5048 90.94540 
2.5049 90.85482 
2.5050 90.76074 
2.5051 90.66328 
2.5052 90.56259 
2.5053 90.45811 
2.5054 90.35025 
2.5055 90.23840 
2.5056 90.12273 
2.5057 90.00346 
2.5058 89.87989 
2.5059 89.75255 
2.5060 89.62073 
2.5061 89.48463 
2.5062 89.34453 
2.5063 89.19963 
2.5064 89.05057 
2.5065 88.89651 
2.5066 88.73772 
2.5067 88.57454 
2.5068 88.40606 
2.5069 88.23301 
2.5070 88.05447 
2.5071 87.87076 
2.5072 87.68226 
2.5073 87.48797 
2.5074 87.28875 
2.5075 87.08353 
2.5076 86.87274 
2.5077 86.65680 
2.5078 86.43459 
2.5079 86.20713 
2.5080 85.97321 
2.5081 85.73332 
2.5082 85.48799 
2.5083 85.23595 
2.5084 84.97839 
2.5085 84.71395 
2.5086 84.44321 
2.5087 84.16680 
2.5088 83.88331 
2.5089 83.59407 
2.5090 83.29763 
2.5091 82.99463 
2.5092 82.68580 
2.5093 82.36960 
2.5094 82.04753 
2.5095 81.71801 
2.5096 81.38177 
2.5097 81.03964 
2.5098 80.68996 
2.5099 80.33439 
2.5100 79.97121 
2.5101 79.60127 
2.5102 79.22552 
2.5103 78.84212 
2.5104 78.45294 
2.5105 78.05614 
2.5106 77.65266 
2.5107 77.24355 
2.5108 76.82684 
2.5109 76.40462 
2.5110 75.97487 
2.5111 75.53867 
2.5112 75.09716 
2.5113 74.64825 
2.5114 74.19421 
2.5115 73.73291 
2.5116 73.26550 
2.5117 72.79327 
2.5118 72.31398 
2.5119 71.83007 
2.5120 71.33930 
2.5121 70.84295 
2.5122 70.34235 
2.5123 69.83521 
2.5124 69.32410 
2.5125 68.80668 
2.5126 68.28431 
2.5127 67.75843 
2.5128 67.22662 
2.5129 66.69163 
2.5130 66.15099 
2.5131 65.60616 
2.5132 65.05867 
2.5133 64.50599 
2.5134 63.95100 
2.5135 63.39114 
2.5136 62.82796 
2.5137 62.26303 
2.5138 61.69375 
2.5139 61.12311 
2.5140 60.54848 
2.5141 59.97145 
2.5142 59.39365 
2.5143 58.81240 
2.5144 58.23077 
2.5145 57.64610 
2.5146 57.05999 
2.5147 56.47408 
2.5148 55.88572 
2.5149 55.29794 
2.5150 54.70808 
2.5151 54.11777 
2.5152 53.52865 
2.5153 52.93802 
2.5154 52.34895 
2.5155 51.75877 
2.5156 51.16909 
2.5157 50.58152 
2.5158 49.99340 
2.5159 49.40776 
2.5160 48.82191 
2.5161 48.23748 
2.5162 47.65605 
2.5163 47.07493 
2.5164 46.49715 
2.5165 45.92004 
2.5166 45.34514 
2.5167 44.77405 
2.5168 44.20410 
2.5169 43.63821 
2.5170 43.07378 
2.5171 42.51232 
2.5172 41.95532 
2.5173 41.40020 
2.5174 40.84978 
2.5175 40.30151 
2.5176 39.75684 
2.5177 39.21719 
2.5178 38.68005 
2.5179 38.14813 
2.5180 37.61894 
2.5181 37.09387 
2.5182 36.57427 
2.5183 36.05770 
2.5184 35.54675 
2.5185 35.03900 
2.5186 34.53578 
2.5187 34.03837 
2.5188 33.54438 
2.5189 33.05631 
2.5190 32.57181 
2.5191 32.09212 
2.5192 31.61846 
2.5193 31.14855 
2.5194 30.68470 
2.5195 30.22470 
2.5196 29.76972 
2.5197 29.32086 
2.5198 28.87597 
2.5199 28.43722 
2.5200 28.00249 
2.5201 27.57288 
2.5202 27.14941 
2.5203 26.73003 
2.5204 26.31678 
2.5205 25.90765 
2.5206 25.50364 
2.5207 25.10573 
2.5208 24.71195 
2.5209 24.32421 
2.5210 23.94061 
2.5211 23.56208 
2.5212 23.18951 
2.5213 22.82107 
2.5214 22.45853 
2.5215 22.10007 
2.5216 21.74658 
2.5217 21.39888 
2.5218 21.05522 
2.5219 20.71726 
2.5220 20.38331 
2.5221 20.05417 
2.5222 19.73058 
2.5223 19.41094 
2.5224 19.09675 
2.5225 18.78645 
2.5226 18.48077 
2.5227 18.18039 
2.5228 17.88381 
2.5229 17.59242 
2.5230 17.30477 
2.5231 17.02152 
2.5232 16.74329 
2.5233 16.46870 
2.5234 16.19902 
2.5235 15.93290 
2.5236 15.67094 
2.5237 15.41373 
2.5238 15.15997 
2.5239 14.91084 
2.5240 14.66506 
2.5241 14.42321 
2.5242 14.18583 
2.5243 13.95168 
2.5244 13.72188 
2.5245 13.49524 
2.5246 13.27228 
2.5247 13.05349 
2.5248 12.83774 
2.5249 12.62604 
2.5250 12.41731 
2.5251 12.21202 
2.5252 12.01061 
2.5253 11.81204 
2.5254 11.61724 
2.5255 11.42521 
2.5256 11.23638 
2.5257 11.05114 
2.5258 10.86856 
2.5259 10.68947 
2.5260 10.51295 
2.5261 10.33940 
2.5262 10.16918 
2.5263 10.00143 
2.5264 9.83690 
2.5265 9.67476 
2.5266 9.51536 
2.5267 9.35905 
2.5268 9.20500 
2.5269 9.05394 
2.5270 8.90509 
2.5271 8.75876 
2.5272 8.61528 
2.5273 8.47390 
2.5274 8.33526 
2.5275 8.19866 
2.5276 8.06439 
2.5277 7.93273 
2.5278 7.80301 
2.5279 7.67582 
2.5280 7.55050 
2.5281 7.42732 
2.5282 7.30655 
2.5283 7.18756 
2.5284 7.07088 
2.5285 6.95593 
2.5286 6.84295 
2.5287 6.73218 
2.5288 6.62303 
2.5289 6.51603 
2.5290 6.41059 
2.5291 6.30697 
2.5292 6.20537 
2.5293 6.10527 
2.5294 6.00712 
2.5295 5.91042 
2.5296 5.81538 
2.5297 5.72219 
2.5298 5.63038 
2.5299 5.54036 
2.5300 5.45166 
2.5301 5.36448 
2.5302 5.27899 
2.5303 5.19477 
2.5304 5.11219 
2.5305 5.03081 
2.5306 4.95083 
2.5307 4.87241 
2.5308 4.79513 
2.5309 4.71936 
2.5310 4.64469 
2.5311 4.57130 
2.5312 4.49933 
2.5313 4.42841 
2.5314 4.35887 
2.5315 4.29034 
2.5316 4.22298 
2.5317 4.15692 
2.5318 4.09182 
2.5319 4.02797 
2.5320 3.96506 
2.5321 3.90321 
2.5322 3.84255 
2.5323 3.78277 
2.5324 3.72414 
2.5325 3.66636 
2.5326 3.60955 
2.5327 3.55383 
2.5328 3.49892 
2.5329 3.44506 
2.5330 3.39197 
2.5331 3.33977 
2.5332 3.28857 
2.5333 3.23811 
2.5334 3.18861 
2.5335 3.13981 
2.5336 3.09183 
2.5337 3.04477 
2.5338 2.99837 
2.5339 2.95286 
2.5340 2.90799 
2.5341 2.86387 
2.5342 2.82058 
2.5343 2.77791 
2.5344 2.73604 
2.5345 2.69477 
2.5346 2.65418 
2.5347 2.61435 
2.5348 2.57508 
2.5349 2.53655 
2.5350 2.49856 
2.5351 2.46120 
2.5352 2.42454 
2.5353 2.38839 
2.5354 2.35291 
2.5355 2.31793 
2.5356 2.28352 
2.5357 2.24975 
2.5358 2.21646 
2.5359 2.18378 
2.5360 2.15155 
2.5361 2.11985 
2.5362 2.08873 
2.5363 2.05804 
2.5364 2.02793 
2.5365 1.99822 
2.5366 1.96900 
2.5367 1.94031 
2.5368 1.91201 
2.5369 1.88424 
2.5370 1.85685 
2.5371 1.82989 
2.5372 1.80343 
2.5373 1.77733 
2.5374 1.75170 
2.5375 1.72643 
2.5376 1.70155 
2.5377 1.67713 
2.5378 1.65304 
2.5379 1.62939 
2.5380 1.60605 
2.5381 1.58308 
2.5382 1.56053 
2.5383 1.53828 
2.5384 1.51644 
2.5385 1.49488 
2.5386 1.47366 
2.5387 1.45283 
2.5388 1.43227 
2.5389 1.41208 
2.5390 1.39216 
2.5391 1.37255 
2.5392 1.35329 
2.5393 1.33428 
2.5394 1.31562 
2.5395 1.29720 
2.5396 1.27906 
2.5397 1.26125 
2.5398 1.24367 
2.5399 1.22640 
2.5400 1.20936 
2.5401 1.19257 
2.5402 1.17609 
2.5403 1.15982 
2.5404 1.14384 
2.5405 1.12806 
2.5406 1.11252 
2.5407 1.09726 
2.5408 1.08220 
2.5409 1.06739 
2.5410 1.05278 
2.5411 1.03839 
2.5412 1.02425 
2.5413 1.01029 
2.5414 0.99658 
2.5415 0.98304 
2.5416 0.96970 
2.5417 0.95659 
2.5418 0.94365 
2.5419 0.93094 
2.5420 0.91838 
2.5421 0.90602 
2.5422 0.89386 
2.5423 0.88186 
2.5424 0.87007 
2.5425 0.85842 
2.5426 0.84694 
2.5427 0.83567 
2.5428 0.82453 
2.5429 0.81358 
2.5430 0.80277 
2.5431 0.79212 
2.5432 0.78165 
2.5433 0.77131 
2.5434 0.76115 
2.5435 0.75111 
2.5436 0.74122 
2.5437 0.73149 
2.5438 0.72189 
2.5439 0.71244 
2.5440 0.70312 
2.5441 0.69392 
2.5442 0.68489 
2.5443 0.67596 
2.5444 0.66718 
2.5445 0.65851 
2.5446 0.64996 
2.5447 0.64156 
2.5448 0.63326 
2.5449 0.62510 
2.5450 0.61703 
2.5451 0.60908 
2.5452 0.60126 
2.5453 0.59354 
2.5454 0.58594 
2.5455 0.57844 
2.5456 0.57104 
2.5457 0.56376 
2.5458 0.55657 
2.5459 0.54950 
2.5460 0.54252 
2.5461 0.53563 
2.5462 0.52885 
2.5463 0.52215 
2.5464 0.51557 
2.5465 0.50906 
2.5466 0.50264 
2.5467 0.49633 
2.5468 0.49009 
2.5469 0.48395 
2.5470 0.47788 
2.5471 0.47190 
2.5472 0.46602 
2.5473 0.46020 
2.5474 0.45448 
2.5475 0.44882 
2.5476 0.44325 
2.5477 0.43776 
2.5478 0.43233 
2.5479 0.42699 
2.5480 0.42172 
2.5481 0.41651 
2.5482 0.41139 
2.5483 0.40633 
2.5484 0.40135 
2.5485 0.39642 
2.5486 0.39157 
2.5487 0.38679 
2.5488 0.38206 
2.5489 0.37741 
2.5490 0.37281 
2.5491 0.36827 
2.5492 0.36381 
2.5493 0.35940 
2.5494 0.35505 
2.5495 0.35076 
2.5496 0.34652 
2.5497 0.34235 
2.5498 0.33822 
2.5499 0.33416 
2.5500 0.33015 
2.5501 0.32618 
2.5502 0.32228 
2.5503 0.31843 
2.5504 0.31463 
2.5505 0.31088 
2.5506 0.30717 
2.5507 0.30353 
2.5508 0.29992 
2.5509 0.29637 
2.5510 0.29285 
2.5511 0.28939 
2.5512 0.28598 
2.5513 0.28260 
2.5514 0.27928 
2.5515 0.27599 
2.5516 0.27275 
2.5517 0.26955 
2.5518 0.26639 
2.5519 0.26328 
2.5520 0.26020 
2.5521 0.25717 
2.5522 0.25417 
2.5523 0.25122 
2.5524 0.24830 
2.5525 0.24542 
2.5526 0.24257 
2.5527 0.23977 
2.5528 0.23700 
2.5529 0.23427 
2.5530 0.23156 
2.5531 0.22890 
2.5532 0.22627 
2.5533 0.22367 
2.5534 0.22111 
2.5535 0.21858 
2.5536 0.21608 
2.5537 0.21361 
2.5538 0.21118 
2.5539 0.20878 
2.5540 0.20640 
2.5541 0.20405 
2.5542 0.20174 
2.5543 0.19946 
2.5544 0.19720 
2.5545 0.19497 
2.5546 0.19277 
2.5547 0.19061 
2.5548 0.18846 
2.5549 0.18634 
2.5550 0.18425 
2.5551 0.18219 
2.5552 0.18015 
2.5553 0.17813 
2.5554 0.17615 
2.5555 0.17418 
2.5556 0.17224 
2.5557 0.17033 
2.5558 0.16844 
2.5559 0.16657 
2.5560 0.16473 
2.5561 0.16290 
2.5562 0.16111 
2.5563 0.15933 
2.5564 0.15757 
2.5565 0.15584 
2.5566 0.15412 
2.5567 0.15244 
2.5568 0.15076 
2.5569 0.14912 
2.5570 0.14748 
2.5571 0.14587 
2.5572 0.14428 
2.5573 0.14271 
2.5574 0.14116 
2.5575 0.13963 
2.5576 0.13811 
2.5577 0.13662 
2.5578 0.13514 
2.5579 0.13368 
2.5580 0.13223 
2.5581 0.13081 
2.5582 0.12940 
2.5583 0.12801 
2.5584 0.12664 
2.5585 0.12528 
2.5586 0.12393 
2.5587 0.12261 
2.5588 0.12130 
2.5589 0.12001 
2.5590 0.11873 
2.5591 0.11746 
2.5592 0.11622 
2.5593 0.11498 
2.5594 0.11376 
2.5595 0.11256 
2.5596 0.11137 
2.5597 0.11019 
2.5598 0.10903 
2.5599 0.10788 
2.5600 0.10675 
2.5601 0.10562 
2.5602 0.10452 
2.5603 0.10342 
2.5604 0.10234 
2.5605 0.10127 
2.5606 0.10021 
2.5607 0.09916 
2.5608 0.09813 
2.5609 0.09711 
2.5610 0.09610 
2.5611 0.09510 
2.5612 0.09412 
2.5613 0.09314 
2.5614 0.09218 
2.5615 0.09123 
2.5616 0.09028 
2.5617 0.08936 
2.5618 0.08844 
2.5619 0.08753 
2.5620 0.08663 
2.5621 0.08574 
2.5622 0.08486 
2.5623 0.08399 
2.5624 0.08314 
2.5625 0.08229 
2.5626 0.08145 
2.5627 0.08062 
2.5628 0.07980 
2.5629 0.07899 
2.5630 0.07819 
2.5631 0.07740 
2.5632 0.07662 
2.5633 0.07584 
2.5634 0.07508 
2.5635 0.07432 
2.5636 0.07357 
2.5637 0.07283 
2.5638 0.07210 
2.5639 0.07138 
2.5640 0.07066 
2.5641 0.06995 
2.5642 0.06926 
2.5643 0.06856 
2.5644 0.06788 
2.5645 0.06720 
2.5646 0.06654 
2.5647 0.06588 
2.5648 0.06522 
2.5649 0.06458 
2.5650 0.06394 
2.5651 0.06330 
2.5652 0.06268 
2.5653 0.06206 
2.5654 0.06145 
2.5655 0.06084 
2.5656 0.06025 
2.5657 0.05965 
2.5658 0.05907 
2.5659 0.05849 
2.5660 0.05792 
2.5661 0.05735 
2.5662 0.05679 
2.5663 0.05624 
2.5664 0.05569 
2.5665 0.05515 
2.5666 0.05461 
2.5667 0.05409 
2.5668 0.05356 
2.5669 0.05304 
2.5670 0.05253 
2.5671 0.05202 
2.5672 0.05152 
2.5673 0.05102 
2.5674 0.05053 
2.5675 0.05005 
2.5676 0.04957 
2.5677 0.04909 
2.5678 0.04862 
2.5679 0.04816 
2.5680 0.04770 
2.5681 0.04724 
2.5682 0.04679 
2.5683 0.04635 
2.5684 0.04591 
2.5685 0.04547 
2.5686 0.04504 
2.5687 0.04461 
2.5688 0.04419 
2.5689 0.04377 
2.5690 0.04336 
2.5691 0.04295 
2.5692 0.04254 
2.5693 0.04214 
2.5694 0.04175 
2.5695 0.04135 
2.5696 0.04097 
2.5697 0.04058 
2.5698 0.04020 
2.5699 0.03983 
2.5700 0.03946 
2.5701 0.03909 
2.5702 0.03872 
2.5703 0.03836 
2.5704 0.03801 
2.5705 0.03765 
2.5706 0.03730 
2.5707 0.03696 
2.5708 0.03662 
2.5709 0.03628 
2.5710 0.03594 
2.5711 0.03561 
2.5712 0.03528 
2.5713 0.03496 
2.5714 0.03464 
2.5715 0.03432 
2.5716 0.03400 
2.5717 0.03369 
2.5718 0.03339 
2.5719 0.03308 
2.5720 0.03278 
2.5721 0.03248 
2.5722 0.03218 
2.5723 0.03189 
2.5724 0.03160 
2.5725 0.03131 
2.5726 0.03103 
2.5727 0.03075 
2.5728 0.03047 
2.5729 0.03020 
2.5730 0.02992 
2.5731 0.02965 
2.5732 0.02939 
2.5733 0.02912 
2.5734 0.02886 
2.5735 0.02860 
2.5736 0.02834 
2.5737 0.02809 
2.5738 0.02784 
2.5739 0.02759 
2.5740 0.02734 
2.5741 0.02710 
2.5742 0.02686 
2.5743 0.02662 
2.5744 0.02638 
2.5745 0.02615 
2.5746 0.02592 
2.5747 0.02569 
2.5748 0.02546 
2.5749 0.02524 
2.5750 0.02501 
2.5751 0.02479 
2.5752 0.02457 
2.5753 0.02436 
2.5754 0.02414 
2.5755 0.02393 
2.5756 0.02372 
2.5757 0.02351 
2.5758 0.02331 
2.5759 0.02310 
2.5760 0.02290 
2.5761 0.02270 
2.5762 0.02251 
2.5763 0.02231 
2.5764 0.02212 
2.5765 0.02192 
2.5766 0.02173 
2.5767 0.02154 
2.5768 0.02136 
2.5769 0.02117 
2.5770 0.02099 
2.5771 0.02081 
2.5772 0.02063 
2.5773 0.02045 
2.5774 0.02028 
2.5775 0.02010 
2.5776 0.01993 
2.5777 0.01976 
2.5778 0.01959 
2.5779 0.01942 
2.5780 0.01926 
2.5781 0.01909 
2.5782 0.01893 
2.5783 0.01877 
2.5784 0.01861 
2.5785 0.01845 
2.5786 0.01829 
2.5787 0.01814 
2.5788 0.01798 
2.5789 0.01783 
2.5790 0.01768 
2.5791 0.01753 
2.5792 0.01738 
2.5793 0.01724 
2.5794 0.01709 
2.5795 0.01695 
2.5796 0.01681 
2.5797 0.01667 
2.5798 0.01653 
2.5799 0.01639 
2.5800 0.01625 
