# Obtained using Skycalc tool from ESO webpage
# Not including telescope emissivity
Wave[nm] Radiance[photons/s/m**2/micron/arsec**2]
1450 276.252
1450.04833 269.962
1450.09667 195.211
1450.14501 52.5928
1450.19335 80.9841
1450.24169 1594.37
1450.29003 19.8946
1450.33837 753.121
1450.38672 194.812
1450.43507 194.558
1450.48341 154.16
1450.53176 72.9795
1450.58012 7.77216
1450.62847 3.05226
1450.67682 3.0441
1450.72518 24.0316
1450.77354 103.468
1450.8219 78.7979
1450.87026 181.852
1450.91862 166.383
1450.96699 75.4197
1451.01536 125.718
1451.06372 128.142
1451.11209 17.9829
1451.16046 8.87882
1451.20884 97.323
1451.25721 111.914
1451.30559 107.842
1451.35397 261.618
1451.40234 297.471
1451.45073 302.662
1451.49911 307.969
1451.54749 313.498
1451.59588 306.546
1451.64426 321.827
1451.69265 322.311
1451.74104 301.248
1451.78944 253.023
1451.83783 203.325
1451.88623 1.109e+06
1451.93462 813661
1451.98302 241.955
1452.03142 298.08
1452.07982 284.072
1452.12823 220.426
1452.17663 122.51
1452.22504 12.7152
1452.27345 38.6667
1452.32186 183.57
1452.37027 5272.61
1452.41868 301.127
1452.4671 314.987
1452.51551 325.171
1452.56393 6625.81
1452.61235 331.624
1452.66077 332.258
1452.70919 330.566
1452.75762 325.7
1452.80604 315.878
1452.85447 289.315
1452.9029 206.61
1452.95133 41.9064
1452.99977 50.6785
1453.0482 217.395
1453.09664 292.061
1453.14507 283.073
1453.19351 282.491
1453.24195 327.383
1453.29039 328.3
1453.33884 335.487
1453.38728 340.7
1453.43573 314.189
1453.48418 267.389
1453.53263 297.023
1453.58108 337.781
1453.62954 343.087
1453.67799 342.521
1453.72645 352.191
1453.77491 351.609
1453.82337 355.314
1453.87183 356.684
1453.92029 353.399
1453.96875 352.023
1454.01722 343.401
1454.06569 258.606
1454.11416 315.394
1454.16263 350.088
1454.2111 353.549
1454.25958 350.054
1454.30805 340.144
1454.35653 307.429
1454.40501 127.23
1454.45349 189.396
1454.50197 311.924
1454.55046 354.529
1454.59894 361.882
1454.64743 358.157
1454.69592 357.468
1454.74441 356.85
1454.7929 353.482
1454.8414 340.896
1454.88989 263.717
1454.93839 299.089
1454.98689 325.322
1455.03539 331.802
1455.08389 344.184
1455.1324 304.867
1455.1809 262.032
1455.22941 172.1
1455.27792 42.6734
1455.32643 3.41038
1455.37494 29.442
1455.42345 153.264
1455.47197 252.778
1455.52048 298.24
1455.569 321.658
1455.61752 328.855
1455.66604 290.18
1455.71456 329.024
1455.76309 354.898
1455.81162 344.887
1455.86014 357.12
1455.90867 359.977
1455.9572 280.529
1456.00574 322.279
1456.05427 367.27
1456.10281 362.29
1456.15134 334.595
1456.19988 174.395
1456.24842 300.882
1456.29697 359.491
1456.34551 346.109
1456.39406 773443
1456.4426 290.318
1456.49115 318.582
1456.5397 373.676
1456.58826 377.934
1456.63681 380.993
1456.68536 379.911
1456.73392 370.095
1456.78248 354.276
1456.83104 371.087
1456.8796 333.763
1456.92817 177.864
1456.97673 264.579
1457.0253 355.496
1457.07387 328.36
1457.12244 373.304
1457.17101 380.033
1457.21958 377.029
1457.26816 335.542
1457.31673 139.682
1457.36531 325.223
1457.41389 377.29
1457.46247 381.625
1457.51105 379.625
1457.55964 372.475
1457.60822 352.675
1457.65681 277.505
1457.7054 97.8628
1457.75399 38.0182
1457.80258 234.605
1457.85118 339.186
1457.89977 361.985
1457.94837 380.071
1457.99697 378.937
1458.04557 388.448
1458.09417 393.584
1458.14278 382.246
1458.19138 393.588
1458.23999 391.864
1458.2886 398.376
1458.33721 397.392
1458.38582 394.463
1458.43444 368.726
1458.48305 297.739
1458.53167 385.749
1458.58029 395.764
1458.62891 379.028
1458.67753 282.271
1458.72615 370.226
1458.77478 399.23
1458.8234 403.52
1458.87203 403.648
1458.92066 387.182
1458.96929 365.182
1459.01793 390.753
1459.06656 375.138
1459.1152 286.193
1459.16384 386.05
1459.21248 402.178
1459.26112 402.675
1459.30976 391.825
1459.3584 315.348
1459.40705 376.505
1459.4557 401.589
1459.50435 403.585
1459.553 403.154
1459.60165 402.205
1459.6503 392.507
1459.69896 384.37
1459.74762 383.56
1459.79628 294.806
1459.84494 328.634
1459.8936 334.26
1459.94226 314.99
1459.99093 378.169
1460.0396 380.309
1460.08827 372.286
1460.13694 356.435
1460.18561 323.121
1460.23428 246.037
1460.28296 91.6842
1460.33163 5.58921
1460.38031 48.2676
1460.42899 248382
1460.47767 512620
1460.52636 894560
1460.57504 311.704
1460.62373 371.987
1460.67242 377.429
1460.72111 377.275
1460.7698 373.399
1460.81849 380.483
1460.86719 363.341
1460.91588 387.506
1460.96458 390.441
1461.01328 386.985
1461.06198 369.115
1461.11069 363.434
1461.15939 337.99
1461.2081 238.461
1461.2568 41.5993
1461.30551 112.593
1461.35422 297.122
1461.40294 360.069
1461.45165 355.091
1461.50037 235.333
1461.54908 333.834
1461.5978 378.317
1461.64652 339.119
1461.69525 270.194
1461.74397 331.454
1461.7927 232.374
1461.84142 363.923
1461.89015 386.874
1461.93888 389.262
1461.98761 387.641
1462.03635 321.772
1462.08508 343.521
1462.13382 388.213
1462.18256 387.709
1462.2313 389.442
1462.28004 395.588
1462.32878 396.957
1462.37753 395.958
1462.42628 391.947
1462.47503 353.39
1462.52378 370.141
1462.57253 320.522
1462.62128 374.798
1462.67003 433.119
1462.71879 380.562
1462.76755 382.191
1462.81631 375.205
1462.86507 348.633
1462.91383 198.577
1462.9626 222.263
1463.01136 322.005
1463.06013 164.383
1463.1089 289.523
1463.15767 149.169
1463.20645 19.8514
1463.25522 10.8624
1463.304 118.852
1463.35277 251.113
1463.40155 268.614
1463.45033 185.491
1463.49912 314.63
1463.5479 359.674
1463.59669 371.661
1463.64547 1358.09
1463.69426 380.253
1463.74305 1320.1
1463.79185 440.763
1463.84064 384.776
1463.88943 373.697
1463.93823 277.159
1463.98703 216.393
1464.03583 361.032
1464.08463 384.909
1464.13344 389.532
1464.18224 391.414
1464.23105 392.016
1464.27986 391.084
1464.32867 389.451
1464.37748 391.222
1464.42629 391.671
1464.47511 392.136
1464.52392 1220.73
1464.57274 1218.71
1464.62156 389.567
1464.67038 386.12
1464.71921 387.044
1464.76803 385.823
1464.81686 383.058
1464.86569 379.819
1464.91452 374.193
1464.96335 364.718
1465.01218 344.964
1465.06101 629.232
1465.10985 332.739
1465.15869 137.706
1465.20753 5.54396
1465.25637 37.3998
1465.30521 37.6428
1465.35406 55.3654
1465.4029 238.642
1465.45175 323.678
1465.5006 352.896
1465.54945 2006.36
1465.5983 381.568
1465.64716 376.177
1465.69601 377.832
1465.74487 378.08
1465.79373 2053.65
1465.84259 368.725
1465.89145 320.372
1465.94031 327.401
1465.98918 190.988
1466.03805 27.6928
1466.08692 150.949
1466.13579 312.479
1466.18466 348.986
1466.23353 356.364
1466.28241 328.998
1466.33128 322.118
1466.38016 217.766
1466.42904 37.801
1466.47792 205207
1466.52681 219638
1466.57569 324.414
1466.62458 232.855
1466.67347 67.7787
1466.72236 189.447
1466.77125 325.458
1466.82014 343.379
1466.86904 338.626
1466.91793 313.703
1466.96683 233.091
1467.01573 88.011
1467.06463 15.1017
1467.11354 1309.35
1467.16244 219.902
1467.21135 324.779
1467.26026 351.399
1467.30916 357.167
1467.35808 345.784
1467.40699 364.778
1467.4559 349.819
1467.50482 251.077
1467.55374 338.488
1467.60266 358.97
1467.65158 348.568
1467.7005 322.303
1467.74942 233.421
1467.79835 51.1055
1467.84728 46.9541
1467.89621 1812.23
1467.94514 321.268
1467.99407 352.439
1468.043 364.999
1468.09194 370.75
1468.14088 373.749
1468.18981 371.975
1468.23875 324.945
1468.2877 341.337
1468.33664 367.487
1468.38559 327.78
1468.43453 367.833
1468.48348 357.015
1468.53243 243.622
1468.58138 301.573
1468.63034 360.105
1468.67929 370.002
1468.72825 372.699
1468.77721 377.955
1468.82617 375.311
1468.87513 374.365
1468.92409 373.075
1468.97306 358.285
1469.02202 332.127
1469.07099 321.051
1469.11996 285.72
1469.16893 251.47
1469.21791 220.054
1469.26688 267.982
1469.31586 337.987
1469.36484 335.605
1469.41382 318.984
1469.4628 285.333
1469.51178 215.205
1469.56076 89.529
1469.60975 9.89571
1469.65874 6.64611
1469.70773 73.6138
1469.75672 194.295
1469.80571 421888
1469.85471 312.707
1469.9037 601869
1469.9527 334.626
1470.0017 348.884
1470.0507 356.219
1470.0997 358.541
1470.14871 357.854
1470.19771 26780.7
1470.24672 26199.6
1470.29573 328.578
1470.34474 205.746
1470.39375 249.85
1470.44277 306.522
1470.49178 188.925
1470.5408 155.624
1470.58982 216.171
1470.63884 96.3214
1470.68786 6.81908
1470.73688 6.23131
1470.78591 67.7978
1470.83494 115.479
1470.88396 187.394
1470.93299 262.796
1470.98203 232.998
1471.03106 109.952
1471.0801 9.00916
1471.12913 80.4132
1471.17817 231.49
1471.22721 284.995
1471.27625 198.415
1471.3253 1443.16
1471.37434 11774.8
1471.42339 341.79
1471.47244 344.544
1471.52149 355.399
1471.57054 348.088
1471.61959 299.527
1471.66865 337.149
1471.7177 317.138
1471.76676 191.461
1471.81582 150.434
1471.86488 318.227
1471.91394 344.662
1471.96301 352.186
1472.01207 348.911
1472.06114 340.229
1472.11021 331.753
1472.15928 308.383
1472.20836 259.019
1472.25743 162.759
1472.30651 31.293
1472.35558 5.64913
1472.40466 23.8723
1472.45374 147.775
1472.50283 243.669
1472.55191 208.896
1472.601 44.9457
1472.65008 124.579
1472.69917 279.597
1472.74826 330.894
1472.79736 341.556
1472.84645 353.124
1472.89555 352.865
1472.94464 352.693
1472.99374 354.974
1473.04284 349.692
1473.09195 341.219
1473.14105 303.6
1473.19016 150.068
1473.23926 63.2894
1473.28837 260.768
1473.33748 333.381
1473.38659 350
1473.43571 354.423
1473.48482 353.104
1473.53394 343.349
1473.58306 315.475
1473.63218 268.004
1473.6813 227.278
1473.73042 56.3664
1473.77955 37.4015
1473.82868 207.873
1473.8778 303.299
1473.92693 281.883
1473.97607 94073.5
1474.0252 99102.8
1474.07433 355.376
1474.12347 356.061
1474.17261 325.436
1474.22175 347.813
1474.27089 365.744
1474.32003 368.828
1474.36918 367.486
1474.41833 368.905
1474.46747 370.117
1474.51662 369.856
1474.56577 369.511
1474.61493 365.108
1474.66408 351.055
1474.71324 296.15
1474.7624 275.027
1474.81156 355.677
1474.86072 366.671
1474.90988 368.955
1474.95904 369.748
1475.00821 369.952
1475.05738 369.849
1475.10655 369.377
1475.15572 368.727
1475.20489 367.842
1475.25407 367.072
1475.30324 365.53
1475.35242 360.111
1475.4016 343.213
1475.45078 300.29
1475.49996 265.688
1475.54915 64003.3
1475.59833 41689.3
1475.64752 313.216
1475.69671 296.608
1475.7459 173.787
1475.79509 21.2983
1475.84429 110.873
1475.89348 246.39
1475.94268 159.893
1475.99188 73.9609
1476.04108 271.953
1476.09028 332.59
1476.13948 331.298
1476.18869 257.646
1476.2379 334.247
1476.28711 357.05
1476.33632 354.85
1476.38553 338.004
1476.43474 332.265
1476.48396 358.766
1476.53317 353.196
1476.58239 343.494
1476.63161 337.427
1476.68083 276.705
1476.73006 262.108
1476.77928 163.908
1476.82851 265.845
1476.87774 285.22
1476.92697 251.118
1476.9762 280.997
1477.02543 189.042
1477.07467 26.4697
1477.12391 82.2924
1477.17314 249.509
1477.22238 126012
1477.27162 133855
1477.32087 344.852
1477.37011 345.47
1477.41936 349.723
1477.46861 349.568
1477.51786 347.202
1477.56711 342.006
1477.61636 329.097
1477.66562 317.236
1477.71487 282.634
1477.76413 200.176
1477.81339 52.3761
1477.86265 7.6785
1477.91191 89.872
1477.96118 223.883
1478.01045 276.601
1478.05971 277.059
1478.10898 161.002
1478.15825 71.7184
1478.20753 412.543
1478.2568 311.773
1478.30608 341.559
1478.35535 305998
1478.40463 309119
1478.45392 350.069
1478.5032 349.519
1478.55248 352.141
1478.60177 355.026
1478.65106 358.086
1478.70034 358.044
1478.74964 356.931
1478.79893 350.053
1478.84822 349.155
1478.89752 327.524
1478.94682 207.865
1478.99611 187.547
1479.04541 309.762
1479.09472 343.81
1479.14402 345.538
1479.19333 349.753
1479.24263 346.457
1479.29194 325.619
1479.34125 274.002
1479.39057 190.709
1479.43988 260.559
1479.4892 122.578
1479.53851 29.086
1479.58783 197.3
1479.63715 303.272
1479.68647 329.793
1479.7358 329.724
1479.78512 310.927
1479.83445 344.193
1479.88378 347.689
1479.93311 298469
1479.98244 341.194
1480.03177 256424
1480.08111 270.492
1480.13045 142.269
1480.17978 254.276
1480.22912 601.03
1480.27847 243.209
1480.32781 105.487
1480.37715 9.39878
1480.4265 83.5896
1480.47585 229.334
1480.5252 286.233
1480.57455 240907
1480.62391 249.067
1480.67326 75.6109
1480.72262 75.2816
1480.77197 258.144
1480.82133 314.413
1480.8707 333.665
1480.92006 340.043
1480.96942 346.615
1481.01879 349.342
1481.06816 350.117
1481.11753 345.399
1481.1669 350.459
1481.21627 346.139
1481.26565 346.03
1481.31502 348.872
1481.3644 348.099
1481.41378 345.978
1481.46316 340.786
1481.51255 332.26
1481.56193 314.635
1481.61132 276.81
1481.6607 146.928
1481.71009 13.1987
1481.75949 63.3749
1481.80888 220.964
1481.85827 259.606
1481.90767 300.187
1481.95707 327.213
1482.00647 327.583
1482.05587 309.094
1482.10527 210.768
1482.15467 50.4239
1482.20408 188.935
1482.25349 188.141
1482.3029 317.4
1482.35231 340.796
1482.40172 346.342
1482.45113 348.097
1482.50055 346.384
1482.54997 304.734
1482.59939 274.923
1482.64881 344.537
1482.69823 350.247
1482.74765 347.526
1482.79708 345.408
1482.84651 346.718
1482.89594 348.223
1482.94537 349.174
1482.9948 342.217
1483.04423 300.603
1483.09367 172.848
1483.14311 269.512
1483.19255 329.358
1483.24199 339.156
1483.29143 647839
1483.34087 643424
1483.39032 265.928
1483.43976 335.323
1483.48921 340.511
1483.53866 299.934
1483.58812 328.432
1483.63757 334.439
1483.68703 347.471
1483.73648 350.522
1483.78594 349.758
1483.8354 348.011
1483.88486 319.165
1483.93433 332.101
1483.98379 336.626
1484.03326 343.819
1484.08273 331.762
1484.1322 275.369
1484.18167 329.515
1484.23114 344.618
1484.28062 326.513
1484.3301 212.536
1484.37957 52.148
1484.42905 223.308
1484.47854 205.133
1484.52802 137.476
1484.5775 326.891
1484.62699 354.251
1484.67648 320.462
1484.72597 277.143
1484.77546 377.159
1484.82495 371.72
1484.87445 392.777
1484.92395 409.806
1484.97344 414.687
1485.02294 416.891
1485.07245 417.937
1485.12195 417.696
1485.17145 400.889
1485.22096 259.774
1485.27047 201.599
1485.31998 387.226
1485.36949 424.044
1485.419 433.119
1485.46852 425.452
1485.51803 342.642
1485.56755 141.846
1485.61707 359.773
1485.66659 439.87
1485.71612 457.605
1485.76564 459.275
1485.81517 461.649
1485.8647 470.303
1485.91423 453.506
1485.96376 466.992
1486.01329 464.434
1486.06282 378.845
1486.11236 228.057
1486.1619 409.071
1486.21144 464.274
1486.26098 475.339
1486.31052 491.755
1486.36007 494.977
1486.40961 539.965
1486.45916 476834
1486.50871 160.926
1486.55826 426.486
1486.60781 454.032
1486.65737 329.842
1486.70692 58.3897
1486.75648 232.247
1486.80604 414.395
1486.8556 501.63
1486.90517 525.229
1486.95473 523.689
1487.0043 467.986
1487.05386 430.802
1487.10343 367.604
1487.153 432.354
1487.20258 270.452
1487.25215 474.046
1487.30173 528.43
1487.3513 534.291
1487.40088 559.441
1487.45046 535.864
1487.50005 325.276
1487.54963 402.121
1487.59922 564.92
1487.6488 586.997
1487.69839 593.523
1487.74798 595.097
1487.79758 590.691
1487.84717 569.571
1487.89677 458.087
1487.94636 119.858
1487.99596 310.558
1488.04556 526.46
1488.09517 576.533
1488.14477 605.825
1488.19438 576.351
1488.24398 561.07
1488.29359 291.909
1488.3432 400.452
1488.39281 591.094
1488.44243 621.751
1488.49204 650.197
1488.54166 658.596
1488.59128 52964.9
1488.6409 52555
1488.69052 626.946
1488.74015 844824
1488.78977 844088
1488.8394 611.593
1488.88903 634.014
1488.93866 674.363
1488.98829 650.792
1489.03792 572.422
1489.08756 600.249
1489.1372 689.448
1489.18684 698.373
1489.23648 707.613
1489.28612 710.172
1489.33576 703.274
1489.38541 684.872
1489.43505 629.909
1489.4847 697.134
1489.53435 690.797
1489.58401 637.83
1489.63366 350.314
1489.68331 52.0669
1489.73297 385.809
1489.78263 664.546
1489.83229 713.231
1489.88195 698.227
1489.93162 643.56
1489.98128 735.425
1490.03095 729.811
1490.08062 763.623
1490.13029 771.132
1490.17996 773.138
1490.22963 764.04
1490.27931 770.855
1490.32898 787.159
1490.37866 789.999
1490.42834 794.086
1490.47802 798.566
1490.52771 800.898
1490.57739 790.883
1490.62708 760.872
1490.67677 796.761
1490.72646 813.594
1490.77615 817.547
1490.82584 101655
1490.87554 813.083
1490.92523 759.23
1490.97493 101259
1491.02463 831.929
1491.07433 835.473
1491.12404 837.888
1491.17374 839.505
1491.22345 838.012
1491.27316 829.452
1491.32287 798.005
1491.37258 580.171
1491.42229 137.441
1491.47201 392.539
1491.52172 348.897
1491.57144 735.546
1491.62116 846.044
1491.67088 861.909
1491.72061 863.849
1491.77033 851.578
1491.82006 854.758
1491.86979 784.575
1491.91952 856.95
1491.96925 813.595
1492.01898 735.317
1492.06872 750.26
1492.11845 673.483
1492.16819 871.736
1492.21793 895.733
1492.26767 910.273
1492.31741 907.234
1492.36716 903.895
1492.41691 883.161
1492.46665 882.92
1492.5164 681.192
1492.56615 875.62
1492.61591 933.917
1492.66566 942.401
1492.71542 941.595
1492.76518 879.654
1492.81494 752.92
1492.8647 851.898
1492.91446 732.485
1492.96422 812.773
1493.01399 914.904
1493.06376 961.673
1493.11353 973.647
1493.1633 307739
1493.21307 306630
1493.26285 806.028
1493.31262 874.132
1493.3624 966.377
1493.41218 962.397
1493.46196 1000.68
1493.51175 1008.32
1493.56153 1010.77
1493.61132 1016.33
1493.6611 1018.42
1493.71089 1022.2
1493.76068 1017.58
1493.81048 1020.21
1493.86027 1015.14
1493.91007 1005.2
1493.95987 980.187
1494.00967 739.686
1494.05947 938.353
1494.10927 862.879
1494.15907 954.791
1494.20888 1046.35
1494.25869 1049.62
1494.3085 1047.21
1494.35831 970.382
1494.40812 835.45
1494.45794 1031.67
1494.50775 1064.78
1494.55757 1076.93
1494.60739 1081.29
1494.65721 1082.49
1494.70703 1086.12
1494.75686 1085.17
1494.80668 1082.8
1494.85651 1060.19
1494.90634 847.504
1494.95617 597.314
1495.006 1012.51
1495.05584 1077.43
1495.10567 1040.72
1495.15551 619.376
1495.20535 1010.97
1495.25519 1107.12
1495.30504 1103.02
1495.35488 974.343
1495.40473 1052.51
1495.45457 1129.62
1495.50442 1136.35
1495.55427 1187.2
1495.60413 1116.6
1495.65398 1127.93
1495.70384 1104.77
1495.75369 870.977
1495.80355 487.652
1495.85341 1062.23
1495.90328 1133.77
1495.95314 1142.4
1496.00301 1166.27
1496.05287 1178.37
1496.10274 1183.67
1496.15262 1183.87
1496.20249 1185.69
1496.25236 1187.63
1496.30224 1138.67
1496.35212 1146.82
1496.40199 1134.69
1496.45188 1031
1496.50176 642.621
1496.55164 403.622
1496.60153 945.434
1496.65142 1186.65
1496.7013 1214.22
1496.7512 1220.77
1496.80109 1223.08
1496.85098 1231.12
1496.90088 1223.17
1496.95078 1239.28
1497.00068 1249.93
1497.05058 1250.87
1497.10048 1248.53
1497.15038 1248.17
1497.20029 1243.4
1497.2502 1234.79
1497.30011 1249.12
1497.35002 1250.9
1497.39993 1253.44
1497.44984 1251.62
1497.49976 1248.09
1497.54968 1206.04
1497.5996 879.077
1497.64952 1155.7
1497.69944 1237.86
1497.74936 1253.07
1497.79929 1257.24
1497.84922 1255.56
1497.89915 1248.91
1497.94908 1228.04
1497.99901 1045.44
1498.04894 1032
1498.09888 596.107
1498.14882 1015.47
1498.19875 1213.23
1498.2487 1240.2
1498.29864 1259.38
1498.34858 1265.07
1498.39853 1269.09
1498.44848 1267.93
1498.49842 1262.38
1498.54838 1086.6
1498.59833 1122.23
1498.64828 1270.93
1498.69824 1276.4
1498.7482 1276.56
1498.79815 1262.74
1498.84811 1229.26
1498.89808 1272.62
1498.94804 1259.97
1498.99801 1260.2
1499.04797 1271.2
1499.09794 1214.33
1499.14791 928.681
1499.19789 1211.84
1499.24786 1255.31
1499.29784 1203.54
1499.34781 1236.65
1499.39779 1283.52
1499.44777 1287.12
1499.49776 1281.54
1499.54774 1274.99
1499.59773 1281.72
1499.64771 1249.08
1499.6977 985.673
1499.74769 1075.45
1499.79769 1183.24
1499.84768 1277.85
1499.89768 1271.32
1499.94767 1291.04
1499.99767 1297.48
1500.04767 1298
1500.09768 1301.4
1500.14768 1303.04
1500.19769 1302.9
1500.24769 1304.58
1500.2977 1305.99
1500.34771 1306.8
1500.39773 1307.27
1500.44774 1307.93
1500.49776 1308.31
1500.54777 1308
1500.59779 2429.36
1500.64781 14071
1500.69783 10300.8
1500.74786 4887.66
1500.79788 1279.06
1500.84791 1308.83
1500.89794 1312.9
1500.94797 1312.87
1500.998 1304.98
1501.04804 1296.11
1501.09807 1315.23
1501.14811 1316.55
1501.19815 1308.32
1501.24819 1221.36
1501.29823 1283.65
1501.34828 1309.66
1501.39832 1319.72
1501.44837 1322.28
1501.49842 1322.94
1501.54847 1314.05
1501.59852 1305.91
1501.64858 1316.88
1501.69863 1323.46
1501.74869 1313.15
1501.79875 1072.4
1501.84881 948.043
1501.89887 1073.8
1501.94894 1315.29
1501.999 1319.76
1502.04907 1327.11
1502.09914 1331.57
1502.14921 1334.58
1502.19928 1334.33
1502.24936 1335.46
1502.29943 1334.82
1502.34951 1329.39
1502.39959 1331.66
1502.44967 1335.49
1502.49975 26198.8
1502.54984 1329.56
1502.59992 1331.55
1502.65001 1317.25
1502.7001 24756.9
1502.75019 802.502
1502.80028 1211.53
1502.85038 1316.02
1502.90047 1334.38
1502.95057 1341.07
1503.00067 1343.31
1503.05077 1335.9
1503.10087 1291.66
1503.15098 1190.85
1503.20108 1163.5
1503.25119 1328.69
1503.3013 1341.22
1503.35141 1336.15
1503.40152 1218.32
1503.45164 1336.65
1503.50175 1323.46
1503.55187 1102.76
1503.60199 1172.85
1503.65211 1330.02
1503.70223 1325.05
1503.75236 1323.66
1503.80248 1215.17
1503.85261 738.444
1503.90274 1184.69
1503.95287 1252.44
1504.003 789.575
1504.05314 1095.59
1504.10327 1325.63
1504.15341 1348.24
1504.20355 1354.69
1504.25369 1353.73
1504.30384 1337.77
1504.35398 1167.95
1504.40413 1004.92
1504.45427 1311.94
1504.50442 1352.69
1504.55457 1358.39
1504.60473 1353.16
1504.65488 1293.57
1504.70504 1129.06
1504.75519 889.385
1504.80535 897.807
1504.85551 1278.42
1504.90568 1343.03
1504.95584 1354.4
1505.00601 1372.98
1505.05618 1375.76
1505.10634 1374.75
1505.15652 1340.76
1505.20669 1198.92
1505.25686 7701.21
1505.30704 491021
1505.35722 1372.9
1505.4074 1377.87
1505.45758 1383.92
1505.50776 1388.55
1505.55794 4.56971e+06
1505.60813 1386.41
1505.65832 1361.61
1505.70851 1374.12
1505.7587 1360.75
1505.80889 1228.53
1505.85909 1330.11
1505.90928 1385.76
1505.95948 1393.54
1506.00968 1396.25
1506.05988 1397.58
1506.11008 1398.85
1506.16029 1399.5
1506.21049 1398.5
1506.2607 1373.52
1506.31091 1391.83
1506.36112 1400.65
1506.41134 148847
1506.46155 1405.17
1506.51177 1406.06
1506.56198 1406.87
1506.6122 1407.51
1506.66242 1407.56
1506.71265 1406.09
1506.76287 1403.52
1506.8131 1405.32
1506.86333 1538.24
1506.91356 1.58371e+06
1506.96379 1412.3
1507.01402 1411.22
1507.06426 1411.59
1507.11449 1413.67
1507.16473 1410.76
1507.21497 1312.9
1507.26521 1091.08
1507.31545 1358.53
1507.3657 1369.05
1507.41594 1413.96
1507.46619 1418.41
1507.51644 1416.4
1507.56669 1420.68
1507.61695 1422.17
1507.6672 1422.3
1507.71746 1377.09
1507.76772 1421.57
1507.81798 1425
1507.86824 1410.51
1507.9185 1427.02
1507.96876 1427.85
1508.01903 1425.49
1508.0693 1426.82
1508.11957 1426.82
1508.16984 1422.02
1508.22011 55098.6
1508.27039 1037.06
1508.32067 1224.79
1508.37094 1411.63
1508.42122 1420.16
1508.4715 1404.43
1508.52179 1194.81
1508.57207 1211.62
1508.62236 1396.34
1508.67265 1286.31
1508.72294 1291.07
1508.77323 1230.91
1508.82352 263986
1508.87382 1342.51
1508.92411 1415.79
1508.97441 1422.91
1509.02471 1391.91
1509.07501 1004.22
1509.12532 1209.22
1509.17562 1420.35
1509.22593 1431.2
1509.27624 1442.82
1509.32655 1448.07
1509.37686 1450.1
1509.42717 1451.48
1509.47749 1452.27
1509.5278 1450.3
1509.57812 1448.97
1509.62844 1453.25
1509.67876 1456.02
1509.72909 1457.14
1509.77941 1458.07
1509.82974 1459.01
1509.88007 1459.72
1509.9304 1460.21
1509.98073 1460.55
1510.03106 1460.94
1510.0814 1460.41
1510.13174 1453.99
1510.18208 1418.67
1510.23242 1259.12
1510.28276 1429.13
1510.3331 1457.83
1510.38345 1463.99
1510.43379 1461.39
1510.48414 1454.61
1510.53449 1431.82
1510.58484 1454.54
1510.6352 1470.28
1510.68555 1471.4
1510.73591 19705
1510.78627 1472.37
1510.83663 1472.86
1510.88699 1470.21
1510.93735 1445.5
1510.98772 1318.97
1511.03809 1439.21
1511.08846 1471.83
1511.13883 1483.05
1511.1892 1464.18
1511.23957 1395.29
1511.28995 1466.87
1511.34033 67711.9
1511.3907 67614.7
1511.44108 1483.05
1511.49147 1482.84
1511.54185 1480.85
1511.59224 1436.67
1511.64262 1457.35
1511.69301 1486.1
1511.7434 1487.36
1511.7938 1488.1
1511.84419 1491.25
1511.89459 1492.44
1511.94498 1493.31
1511.99538 1494.12
1512.04578 1494.87
1512.09618 1495.54
1512.14659 1496.06
1512.19699 1496.31
1512.2474 1495.82
1512.29781 1492.52
1512.34822 1456.09
1512.39863 1200.92
1512.44905 1456.52
1512.49946 1484.14
1512.54988 1491.5
1512.6003 1500.41
1512.65072 1501.95
1512.70114 1502.97
1512.75157 1502.26
1512.80199 1503.61
1512.85242 1383.09
1512.90285 1277.75
1512.95328 1496.79
1513.00371 1505.62
1513.05415 1506.13
1513.10458 1496.99
1513.15502 1401.33
1513.20546 1474.37
1513.2559 1502
1513.30635 1510.83
1513.35679 3992.12
1513.40724 1803.26
1513.45768 1504.92
1513.50813 3684.49
1513.55858 1484.77
1513.60904 1507.19
1513.65949 1513.42
1513.70995 1504.57
1513.76041 1294.8
1513.81086 1351.37
1513.86133 1510.42
1513.91179 6291.43
1513.96225 1435.27
1514.01272 1516.52
1514.06319 1508.69
1514.11366 1431.71
1514.16413 1457.69
1514.2146 1392.25
1514.26508 1488.47
1514.31555 1520.23
1514.36603 1527.21
1514.41651 1531.58
1514.46699 1532.61
1514.51747 16218.7
1514.56796 16230.9
1514.61845 1533.53
1514.66893 1533.9
1514.71942 1532.82
1514.76992 1521.94
1514.82041 1378.44
1514.8709 1439.75
1514.9214 1530.96
1514.9719 6231.85
1515.0224 1541.36
1515.0729 1542.74
1515.1234 1543.2
1515.17391 1544.81
1515.22441 6244.64
1515.27492 1546.7
1515.32543 1547.49
1515.37594 1548.13
1515.42646 1547.8
1515.47697 1546.57
1515.52749 1503.92
1515.57801 1514.55
1515.62853 1550.08
1515.67905 1552.62
1515.72957 1553.65
1515.7801 1554.44
1515.83063 1555.43
1515.88115 1556.13
1515.93168 1556.71
1515.98222 1557.14
1516.03275 1557.29
1516.08329 1556.6
1516.13382 1554.4
1516.18436 1547.45
1516.2349 1480.43
1516.28544 1229.23
1516.33599 1494.13
1516.38653 1540.04
1516.43708 1557.15
1516.48763 1562.38
1516.53818 1563.58
1516.58873 1559.59
1516.63928 1563.5
1516.68984 1561.74
1516.7404 1549.18
1516.79096 1415.07
1516.84152 1353.39
1516.89208 1541.25
1516.94264 1564.21
1516.99321 1569.49
1517.04378 1571.86
1517.09434 1572.77
1517.14491 1572.08
1517.19549 1561.48
1517.24606 1492.89
1517.29664 1550.01
1517.34721 1570.23
1517.39779 1576.03
1517.44837 1575.34
1517.49896 1568.25
1517.54954 1526.27
1517.60013 1270.38
1517.65071 1479.88
1517.7013 1552.97
1517.75189 2519.84
1517.80249 1704.18
1517.85308 1585.97
1517.90368 1586.93
1517.95427 1588.71
1518.00487 1589.57
1518.05547 1590.3
1518.10608 1591.2
1518.15668 1591.29
1518.20729 1591.43
1518.2579 1591.65
1518.30851 1583.81
1518.35912 4006.22
1518.40973 3944.44
1518.46034 1590.05
1518.51096 1596.5
1518.56158 1598.48
1518.6122 1599.48
1518.66282 1598.37
1518.71344 981644
1518.76407 1590.53
1518.81469 1599.49
1518.86532 1546.94
1518.91595 1437.43
1518.96658 1592.13
1519.01721 1548.41
1519.06785 1567.5
1519.11849 1582.16
1519.16912 1423.42
1519.21976 1499.37
1519.27041 1594.97
1519.32105 1605.27
1519.37169 1605.53
1519.42234 1593.3
1519.47299 1538.16
1519.52364 1599.9
1519.57429 1609.85
1519.62494 1589.34
1519.6756 1587.22
1519.72625 1613.32
1519.77691 1617.19
1519.82757 1618.86
1519.87824 1618.87
1519.9289 1619.79
1519.97956 1597.36
1520.03023 1570.67
1520.0809 1620.6
1520.13157 1623.05
1520.18224 1623.95
1520.23291 1614.29
1520.28359 1615.69
1520.33427 1621.26
1520.38495 1589.23
1520.43563 1463.23
1520.48631 1600.28
1520.53699 1625.88
1520.58768 1630.03
1520.63836 1631.81
1520.68905 1633.01
1520.73974 1632.54
1520.79044 1630.7
1520.84113 1635.75
1520.89182 1636.76
1520.94252 1637.37
1520.99322 1638.35
1521.04392 1636.95
1521.09462 1635.12
1521.14533 1633.27
1521.19603 1631.39
1521.24674 1629.09
1521.29745 1626.84
1521.34816 1624.12
1521.39887 1622.38
1521.44959 1621.06
1521.5003 1619.16
1521.55102 1616.14
1521.60174 1591.43
1521.65246 1597.64
1521.70318 1609.97
1521.75391 1605.38
1521.80463 1570.49
1521.85536 1488.2
1521.90609 1542.54
1521.95682 1596.23
1522.00755 1599.16
1522.05829 1598.4
1522.10903 1596.42
1522.15976 1595.18
1522.2105 1593.56
1522.26124 1682.72
1522.31199 1680.74
1522.36273 1585.34
1522.41348 1579.44
1522.46423 1579.13
1522.51498 1581.67
1522.56573 1579.45
1522.61648 1576.86
1522.66723 1575.77
1522.71799 1574.98
1522.76875 1573.28
1522.81951 1960.5
1522.87027 1958.5
1522.92103 1565.24
1522.9718 1563.53
1523.02256 1563.38
1523.07333 1561.94
1523.1241 1560.12
1523.17487 1558.15
1523.22565 1555.63
1523.27642 1553.25
1523.3272 1550.36
1523.37798 1542.96
1523.42876 1489.77
1523.47954 1512.86
1523.53032 1540.72
1523.58111 1541.13
1523.6319 1534.19
1523.68268 1534.15
1523.73347 1536.84
1523.78427 1535.15
1523.83506 1533.48
1523.88586 1532
1523.93665 1530.07
1523.98745 1527.02
1524.03825 1525.95
1524.08905 3.24768e+06
1524.13986 102768
1524.19066 1520.8
1524.24147 1518.08
1524.29228 1515.85
1524.34309 1512.9
1524.3939 1491.49
1524.44472 1497.89
1524.49553 1474.76
1524.54635 1406.05
1524.59717 1434.95
1524.64799 1497.83
1524.69881 1493.41
1524.74964 1492.27
1524.80046 1496.89
1524.85129 1495.74
1524.90212 1492.58
1524.95295 1481.5
1525.00378 1448.53
1525.05462 1481.01
1525.10545 1478.39
1525.15629 1476.3
1525.20713 1477.28
1525.25797 1467.68
1525.30881 1474.35
1525.35966 1471.52
1525.4105 1468.08
1525.46135 1463.98
1525.5122 1448.88
1525.56305 1457.53
1525.61391 1463.1
1525.66476 1462.34
1525.71562 1458.38
1525.76647 1416.52
1525.81733 1385.99
1525.8682 1448.01
1525.91906 1449.1
1525.96992 1449.49
1526.02079 1451.21
1526.07166 1449.69
1526.12253 1447.57
1526.1734 1428.65
1526.22427 1433.9
1526.27515 1438.67
1526.32602 1440.13
1526.3769 1437.91
1526.42778 1422.83
1526.47866 1387.72
1526.52955 1423.18
1526.58043 1427.58
1526.63132 1427.4
1526.68221 1423.63
1526.7331 1386.98
1526.78399 1312.81
1526.83488 1405.55
1526.88578 1834.49
1526.93668 1416.09
1526.98758 1416.69
1527.03848 1834.29
1527.08938 1411.37
1527.14028 1409.35
1527.19119 1407.99
1527.24209 1404.61
1527.293 1399.4
1527.34391 1354.85
1527.39483 1304.25
1527.44574 1398.65
1527.49666 1405.65
1527.54757 1393.22
1527.59849 1390.3
1527.64941 1391.72
1527.70034 1389.45
1527.75126 1388.96
1527.80219 1385.39
1527.85311 1384.58
1527.90404 1381.53
1527.95497 1420.68
1528.00591 1360.35
1528.05684 1418.98
1528.10778 1374.77
1528.15872 1373.07
1528.20965 1371.57
1528.2606 2044.12
1528.31154 1366.37
1528.36248 1365.92
1528.41343 1364.41
1528.46438 1361.57
1528.51533 2036.33
1528.56628 1357.65
1528.61723 1354.2
1528.66819 1350.12
1528.71914 1306.41
1528.7701 1.20235e+06
1528.82106 1341.4
1528.87202 1345.99
1528.92299 1345.3
1528.97395 1342.76
1529.02492 1341.8
1529.07589 1340.46
1529.12686 1338.05
1529.17783 1334.26
1529.2288 1328.59
1529.27978 1331.15
1529.33075 1328.59
1529.38173 1327.88
1529.43271 1326.59
1529.48369 1323.96
1529.53468 1317.58
1529.58566 1305.33
1529.63665 1292.35
1529.68764 1305.98
1529.73863 1295.98
1529.78962 1292.8
1529.84061 1308.26
1529.89161 1305.98
1529.94261 1304.04
1529.99361 1303.26
1530.04461 1302.82
1530.09561 1301.27
1530.14661 1299.51
1530.19762 1293.88
1530.24863 1263.19
1530.29964 1288.08
1530.35065 1257.91
1530.40166 1272.02
1530.45267 1287.61
1530.50369 1282.64
1530.55471 1282.5
1530.60573 1280.07
1530.65675 1276.86
1530.70777 1278.52
1530.75879 1275.85
1530.80982 1272.24
1530.86085 1274
1530.91188 1268
1530.96291 1263.83
1531.01394 1265.34
1531.06498 1258.56
1531.11601 1261.91
1531.16705 1258.01
1531.21809 1255.87
1531.26913 1230.37
1531.32018 1218.43
1531.37122 1173.04
1531.42227 1233.84
1531.47332 1247.96
1531.52437 1248.77
1531.57542 1246.18
1531.62647 1239.79
1531.67753 1237.66
1531.72858 1241.29
1531.77964 1238.87
1531.8307 1237.73
1531.88176 1233.79
1531.93283 1219.55
1531.98389 1225.3
1532.03496 1230.8
1532.08603 1229.09
1532.1371 1225.34
1532.18817 1223.93
1532.23924 1206.15
1532.29032 1218.83
1532.3414 1218.55
1532.39247 1215.19
1532.44356 1213.88
1532.49464 1212.04
1532.54572 1188.29
1532.59681 1204.38
1532.64789 1205.78
1532.69898 1205.64
1532.75007 1201.36
1532.80117 1198.55
1532.85226 1173.61
1532.90336 1196.08
1532.95446 1194.88
1533.00555 1191.97
1533.05666 1191.97
1533.10776 1188.33
1533.15886 1156.42
1533.20997 1.71736e+06
1533.26108 1.72338e+06
1533.31219 1184.15
1533.3633 1182.28
1533.41441 1178.08
1533.46553 1142.23
1533.51664 1170.45
1533.56776 1173.83
1533.61888 1171.14
1533.67 1169.03
1533.72112 1165.64
1533.77225 1139.98
1533.82338 1145.21
1533.8745 1165.33
1533.92563 1156.42
1533.97677 1138.49
1534.0279 1150.68
1534.07903 1130.47
1534.13017 1122.42
1534.18131 1149.45
1534.23245 1148.97
1534.28359 1147.05
1534.33474 1144.86
1534.38588 1137.88
1534.43703 1091.22
1534.48818 1135.82
1534.53933 1137.34
1534.59048 1133.75
1534.64163 1132.98
1534.69279 1131.32
1534.74395 1097.36
1534.7951 1102.72
1534.84627 1125.89
1534.89743 1123.28
1534.94859 1114.19
1534.99976 1105.46
1535.05093 1110.25
1535.10209 1062.1
1535.15327 1086.37
1535.20444 1103.21
1535.25561 1107.71
1535.30679 1107.52
1535.35797 1106.02
1535.40915 1075.94
1535.46033 1075.27
1535.51151 1101.53
1535.56269 1100.58
1535.61388 1098.58
1535.66507 1096.53
1535.71626 1090.53
1535.76745 1038.49
1535.81864 1075.22
1535.86984 1087.11
1535.92103 1086.33
1535.97223 1083.33
1536.02343 1080.13
1536.07463 1074.07
1536.12584 1036.22
1536.17704 1073.79
1536.22825 1074.78
1536.27946 1065.86
1536.33067 1070.6
1536.38188 1070.23
1536.43309 1058.54
1536.48431 1037.03
1536.53553 1062.97
1536.58674 1062.43
1536.63796 1060.94
1536.68919 1057.93
1536.74041 1050.79
1536.79164 1040.63
1536.84286 1034.71
1536.89409 1050.75
1536.94532 1049.76
1536.99655 1047.62
1537.04779 1044.77
1537.09902 1040.1
1537.15026 1009.25
1537.2015 1014.07
1537.25274 1038.34
1537.30398 1038.41
1537.35523 1034.96
1537.40648 1032.67
1537.45772 1030.71
1537.50897 1027.75
1537.56022 1021.69
1537.61148 1030
1537.66273 1036.05
1537.71399 1021.7
1537.76525 1020.01
1537.81651 1017.52
1537.86777 1016.2
1537.91903 1024
1537.97029 1022.19
1538.02156 1010.21
1538.07283 1002.98
1538.1241 1000.06
1538.17537 1004.68
1538.22664 1003.03
1538.27792 1000.5
1538.3292 998.129
1538.38047 996.823
1538.43175 992.672
1538.48304 973.998
1538.53432 989.919
1538.58561 989.083
1538.63689 986.554
1538.68818 1137.89
1538.73947 1137.95
1538.79076 981.015
1538.84206 959.917
1538.89335 966.75
1538.94465 975.875
1538.99595 974.348
1539.04725 972.243
1539.09855 973.409
1539.14986 1051.88
1539.20116 1046.02
1539.25247 927.306
1539.30378 953.602
1539.35509 959.832
1539.4064 958.96
1539.45772 956.958
1539.50903 457973
1539.56035 457931
1539.61167 925.159
1539.66299 932.451
1539.71432 947.132
1539.76564 945.755
1539.81697 944.131
1539.86829 941.607
1539.91962 939.362
1539.97096 934.538
1540.02229 896.415
1540.07362 931.411
1540.12496 932.543
1540.1763 930.822
1540.22764 928.84
1540.27898 926.999
1540.33032 923.974
1540.38167 905.251
1540.43302 892.213
1540.48437 2118.47
1540.53572 2119.18
1540.58707 915.679
1540.63842 913.168
1540.68978 909.46
1540.74113 908.836
1540.79249 885.743
1540.84385 883.634
1540.89522 903.458
1540.94658 901.769
1540.99795 898.196
1541.04931 898.134
1541.10068 1629.3
1541.15205 1671.74
1541.20343 869.142
1541.2548 870.836
1541.30618 886.915
1541.35755 935.835
1541.40893 885.592
1541.46031 883.704
1541.5117 881.615
1541.56308 878.644
1541.61447 854.334
1541.66586 852.773
1541.71725 872.711
1541.76864 871.716
1541.82003 868.359
1541.87143 867.295
1541.92282 865.393
1541.97422 861.15
1542.02562 842.261
1542.07702 844.494
1542.12843 849.635
1542.17983 845.521
1542.23124 853.44
1542.28265 852.791
1542.33406 851.312
1542.38547 924.745
1542.43688 833.361
1542.4883 830.982
1542.53971 843.19
1542.59113 841.703
1542.64255 915.003
1542.69398 837.593
1542.7454 835.916
1542.79683 833.058
1542.84825 822.569
1542.89968 811.138
1542.95111 820.586
1543.00255 8152.03
1543.05398 8162.77
1543.10542 823.151
1543.15685 1.10113e+06
1543.20829 818.963
1543.25973 1.09857e+06
1543.31118 795.256
1543.36262 811.835
1543.41407 811.349
1543.46552 809.741
1543.51697 807.868
1543.56842 806.088
1543.61987 804.228
1543.67132 801.937
1543.72278 791.084
1543.77424 792.06
1543.8257 3347.42
1543.87716 2916.45
1543.92862 4639.83
1543.98009 790.358
1544.03156 786.412
1544.08303 787.574
1544.1345 783.989
1544.18597 776.662
1544.23744 770.505
1544.28892 778.092
1544.34039 783.687
1544.39187 772.842
1544.44335 780.905
1544.49484 781.068
1544.54632 780.422
1544.59781 774.894
1544.64929 777.757
1544.70078 779.811
1544.75227 779.716
1544.80377 779.067
1544.85526 778.353
1544.90676 777.615
1544.95825 776.823
1545.00975 774.854
1545.06125 769.643
1545.11276 774.401
1545.16426 773.87
1545.21577 773.14
1545.26728 772.543
1545.31879 771.781
1545.3703 770.511
1545.42181 768.902
1545.47333 766.47
1545.52484 766.33
1545.57636 768.009
1545.62788 767.219
1545.6794 764.558
1545.73093 760.311
1545.78245 764.623
1545.83398 764.395
1545.88551 763.514
1545.93704 759.421
1545.98857 761.142
1546.0401 759.357
1546.09164 760.318
1546.14318 758.043
1546.19471 35179.9
1546.24626 35526.5
1546.2978 757.154
1546.34934 756.812
1546.40089 754.058
1546.45244 754.962
1546.50398 754.883
1546.55554 753.953
1546.60709 749.395
1546.65864 750.836
1546.7102 752.062
1546.76176 751.439
1546.81332 750.066
1546.86488 748.723
1546.91644 748.594
1546.96801 748.251
1547.01957 747.855
1547.07114 747.056
1547.12271 746.185
1547.17428 744.97
1547.22586 744.505
1547.27743 742.862
1547.32901 742.131
1547.38059 19789.9
1547.43217 19743.8
1547.48375 740.327
1547.53533 740.211
1547.58692 738.914
1547.6385 739.054
1547.69009 738.435
1547.74168 737.127
1547.79328 736.39
1547.84487 736.23
1547.89646 735.174
1547.94806 730.814
1547.99966 733.306
1548.05126 733.353
1548.10286 732.666
1548.15447 731.913
1548.20608 730.946
1548.25768 730.206
1548.30929 729.348
1548.3609 728.867
1548.41252 728.343
1548.46413 727.575
1548.51575 726.723
1548.56737 726.085
1548.61899 725.128
1548.67061 724.4
1548.72223 723.607
1548.77385 722
1548.82548 721.96
1548.87711 721.586
1548.92874 721.061
1548.98037 720.291
1549.03201 719.055
1549.08364 718.59
1549.13528 717.831
1549.18692 717.309
1549.23856 716.751
1549.2902 716.034
1549.34184 715.277
1549.39349 714.379
1549.44514 713.662
1549.49678 712.294
1549.54844 711.879
1549.60009 711.08
1549.65174 710.026
1549.7034 707.891
1549.75506 709.014
1549.80671 708.504
1549.85838 706.928
1549.91004 706.959
1549.9617 706.442
1550.01337 705.51
1550.06504 127883
1550.11671 127866
1550.16838 703.276
1550.22005 702.848
1550.27173 702.218
1550.3234 701.51
1550.37508 700.777
1550.42676 700.025
1550.47844 699.271
1550.53013 698.17
1550.58181 696.385
1550.6335 695.842
1550.68519 696.049
1550.73688 695.452
1550.78857 694.844
1550.84026 693.529
1550.89196 692.867
1550.94366 236675
1550.99536 237194
1551.04706 689.323
1551.09876 688.15
1551.15046 688.835
1551.20217 688.311
1551.25388 688.264
1551.30559 687.644
1551.3573 686.857
1551.40901 685.806
1551.46072 685.256
1551.51244 684.545
1551.56416 683.234
1551.61588 682.229
1551.6676 681.755
1551.71932 681.08
1551.77105 65133.1
1551.82277 65213.2
1551.8745 679.516
1551.92623 678.715
1551.97796 677.152
1552.0297 669.739
1552.08143 669.867
1552.13317 675.183
1552.18491 674.384
1552.23665 673.499
1552.28839 673.639
1552.34013 672.838
1552.39188 672.37
1552.44363 671.672
1552.49538 670.884
1552.54713 670.181
1552.59888 669.108
1552.65063 667.067
1552.70239 667.836
1552.75415 667.295
1552.80591 666.537
1552.85767 665.651
1552.90943 665.035
1552.96119 664.375
1553.01296 663.616
1553.06473 662.878
1553.1165 661.429
1553.16827 660.338
1553.22004 660.647
1553.27182 660.025
1553.32359 659.267
1553.37537 658.583
1553.42715 657.865
1553.47893 657.099
1553.53072 656.353
1553.5825 655.674
1553.63429 654.838
1553.68608 654.048
1553.73787 653.44
1553.78966 652.449
1553.84146 651.895
1553.89325 651.295
1553.94505 242961
1553.99685 263084
1554.04865 649.037
1554.10045 505235
1554.15225 646.102
1554.20406 645.173
1554.25587 642.649
1554.30768 643.477
1554.35949 644.489
1554.4113 643.936
1554.46312 643.246
1554.51493 642.506
1554.56675 346723
1554.61857 353828
1554.67039 746.053
1554.72221 639.047
1554.77404 637.996
1554.82587 4111.95
1554.87769 637.425
1554.92953 636.703
1554.98136 635.774
1555.03319 635.031
1555.08503 634.483
1555.13686 633.806
1555.1887 633.003
1555.24054 631.817
1555.29238 631.573
1555.34423 630.914
1555.39607 630.194
1555.44792 629.469
1555.49977 628.741
1555.55162 628.011
1555.60347 627.276
1555.65533 626.554
1555.70718 625.825
1555.75904 625.091
1555.8109 624.366
1555.86276 623.637
1555.91463 622.902
1555.96649 622.004
1556.01836 621.432
1556.07022 620.706
1556.12209 619.956
1556.17397 619.097
1556.22584 622.232
1556.27771 617.675
1556.32959 616.298
1556.38147 616.045
1556.43335 619.411
1556.48523 614.852
1556.53712 614.141
1556.589 613.419
1556.64089 612.683
1556.69278 611.948
1556.74467 611.222
1556.79656 610.448
1556.84845 609.112
1556.90035 608.804
1556.95225 608.229
1557.00415 324593
1557.05605 733.813
1557.10795 606.111
1557.15986 605.386
1557.21176 604.614
1557.26367 603.702
1557.31558 608.481
1557.36749 602.11
1557.4194 601.481
1557.47132 1017.66
1557.52324 6425
1557.57515 599.522
1557.62707 604.587
1557.679 598.093
1557.73092 597.362
1557.78284 596.582
1557.83477 595.897
1557.8867 595.171
1557.93863 594.417
1557.99056 593.656
1558.0425 592.93
1558.09443 591.595
1558.14637 590.663
1558.19831 590.608
1558.25025 589.92
1558.30219 589.296
1558.35414 588.538
1558.40608 587.858
1558.45803 587.127
1558.50998 586.359
1558.56193 585.481
1558.61388 584.857
1558.66584 584.145
1558.71779 583.101
1558.76975 580.481
1558.82171 581.566
1558.87367 581.077
1558.92564 580.423
1558.9776 579.8
1559.02957 579.054
1559.08154 578.231
1559.13351 577.53
1559.18548 576.89
1559.23745 576.13
1559.28943 575.29
1559.34141 573.902
1559.39338 573.789
1559.44537 573.158
1559.49735 572.339
1559.54933 571.572
1559.60132 570.975
1559.65331 570.185
1559.70529 569.244
1559.75729 1.24762e+06
1559.80928 148177
1559.86127 567.323
1559.91327 566.617
1559.96527 565.911
1560.01727 565.095
1560.06927 563.295
1560.12127 563.301
1560.17328 10814.1
1560.22528 562.263
1560.27729 561.513
1560.3293 560.735
1560.38131 559.736
1560.43333 559.315
1560.48534 558.592
1560.53736 557.888
1560.58938 557.157
1560.6414 556.394
1560.69342 555.557
1560.74544 554.839
1560.79747 553.518
1560.8495 552.467
1560.90153 551.619
1560.95356 551.873
1561.00559 551.235
1561.05763 550.524
1561.10966 549.812
1561.1617 549.094
1561.21374 548.192
1561.26578 547.257
1561.31782 546.796
1561.36987 545.946
1561.42191 545.42
1561.47396 544.72
1561.52601 543.994
1561.57806 543.266
1561.63012 542.534
1561.68217 541.797
1561.73423 541.068
1561.78629 540.324
1561.83835 539.601
1561.89041 538.859
1561.94248 538.125
1561.99454 537.367
1562.04661 536.591
1562.09868 535.834
1562.15075 534.885
1562.20282 531.511
1562.25489 530.814
1562.30697 532.574
1562.35905 531.993
1562.41113 529.526
1562.46321 528.191
1562.51529 529.725
1562.56738 529.244
1562.61946 528.558
1562.67155 527.792
1562.72364 527.046
1562.77573 526.274
1562.82783 525.495
1562.87992 15856
1562.93202 523.074
1562.98412 521.148
1563.03622 522.316
1563.08832 89639.8
1563.14042 589958
1563.19253 74399.5
1563.24464 519.634
1563.29675 519.067
1563.34886 518.351
1563.40097 517.623
1563.45308 516.894
1563.5052 516.16
1563.55732 515.423
1563.60944 514.687
1563.66156 513.948
1563.71368 513.192
1563.7658 512.377
1563.81793 510.79
1563.87006 509.364
1563.92219 510.079
1563.97432 509.487
1564.02645 508.774
1564.07859 508.055
1564.13073 507.268
1564.18286 505.735
1564.235 505.013
1564.28715 504.72
1564.33929 503.865
1564.39144 500.529
1564.44358 501.729
1564.49573 502.064
1564.54788 501.439
1564.60004 500.738
1564.65219 500.019
1564.70435 499.292
1564.7565 498.556
1564.80866 497.831
1564.86082 497.099
1564.91299 496.365
1564.96515 495.63
1565.01732 494.888
1565.06949 494.152
1565.12166 493.359
1565.17383 492.399
1565.226 491.882
1565.27818 491.149
1565.33035 489.955
1565.38253 489.14
1565.43471 488.932
1565.48689 1.73452e+06
1565.53908 573.656
1565.59126 60137.5
1565.64345 134878
1565.69564 485.29
1565.74783 45106.8
1565.80002 128940
1565.85222 482.125
1565.90441 480.56
1565.95661 481.169
1566.00881 480.33
1566.06101 479.307
1566.11321 478.514
1566.16542 478.478
1566.21762 477.865
1566.26983 477.016
1566.32204 476.419
1566.37425 475.631
1566.42647 474.706
1566.47868 474.123
1566.5309 473.345
1566.58312 472.742
1566.63534 3521.02
1566.68756 470.892
1566.73978 470.463
1566.79201 469.611
1566.84424 468.472
1566.89647 466.955
1566.9487 466.899
1567.00093 466.541
1567.05316 466.751
1567.1054 465.792
1567.15764 3783.45
1567.20988 466.31
1567.26212 467.373
1567.31436 466.754
1567.36661 466.699
1567.41885 467.442
1567.4711 466.784
1567.52335 466.815
1567.5756 466.712
1567.62786 467.291
1567.68011 467.903
1567.73237 464.881
1567.78463 467.608
1567.83689 467.391
1567.88915 465.7
1567.94141 6266.03
1567.99368 468.182
1568.04594 467.605
1568.09821 465.175
1568.15048 466.271
1568.20276 469.56
1568.25503 469.578
1568.30731 464.153
1568.35959 26253.3
1568.41186 469.221
1568.46415 6937.03
1568.51643 467.738
1568.56871 460.647
1568.621 465.658
1568.67329 469.983
1568.72558 469.27
1568.77787 456.307
1568.83016 468.876
1568.88246 468.002
1568.93476 467.375
1568.98705 459.295
1569.03936 459.096
1569.09166 470.374
1569.14396 470.44
1569.19627 464.387
1569.24857 9835.79
1569.30088 468.587
1569.35319 471.639
1569.40551 470.703
1569.45782 455.745
1569.51014 441.659
1569.56246 467.92
1569.61478 471.955
1569.6671 471.489
1569.71942 446.462
1569.77174 11655.6
1569.82407 469.089
1569.8764 468.932
1569.92873 471.12
1569.98106 438.506
1570.03339 441.03
1570.08573 468.678
1570.13807 471.012
1570.19041 467.979
1570.24275 555934
1570.29509 463.859
1570.34743 471.282
1570.39978 470.448
1570.45213 470.622
1570.50448 445.018
1570.55683 403.235
1570.60918 16655.1
1570.66153 473.141
1570.71389 471.133
1570.76625 464.769
1570.81861 381.518
1570.87097 454.515
1570.92333 472.803
1570.9757 474.031
1571.02806 471.748
1571.08043 571.517
1571.1328 36108.6
1571.18517 469.143
1571.23755 471.897
1571.28992 474.131
1571.3423 468.285
1571.39468 371.015
1571.44706 437.785
1571.49944 472.326
1571.55183 472.017
1571.60421 472.558
1571.6566 460.705
1571.70899 347.771
1571.76138 457.678
1571.81377 473.831
1571.86617 475.53
1571.91857 22193.8
1571.97096 2006.07
1572.02336 343.438
1572.07577 463.868
1572.12817 473.23
1572.18057 476.25
1572.23298 474.465
1572.28539 455.306
1572.3378 336.603
1572.39021 461.643
1572.44263 27890.9
1572.49504 475.84
1572.54746 476.273
1572.59988 466.533
1572.6523 343.03
1572.70472 444.972
1572.75715 475.951
1572.80957 477.859
1572.862 477.017
1572.91443 473.771
1572.96686 392.46
1573.01929 395.281
1573.07173 474.388
1573.12417 478.751
1573.1766 479.304
1573.22904 477.206
1573.28149 28420.8
1573.33393 646.374
1573.38637 464.654
1573.43882 478.371
1573.49127 480.249
1573.54372 479.908
1573.59617 476.663
1573.64863 412.229
1573.70108 397.745
1573.75354 476.209
1573.806 37247.8
1573.85846 480.666
1573.91092 481.056
1573.96339 29661.3
1574.01586 402.495
1574.06832 429.281
1574.12079 480.117
1574.17326 482.549
1574.22574 481.357
1574.27821 481.921
1574.33069 478.453
1574.38317 410.589
1574.43565 449.802
1574.48813 482.159
1574.54061 484.112
1574.5931 483.917
1574.64559 481.909
1574.69808 35578.6
1574.75057 440.958
1574.80306 457.89
1574.85555 482.333
1574.90805 485.513
1574.96055 486.018
1575.01305 485.476
1575.06555 482.949
1575.11805 473.258
1575.17056 44840
1575.22306 483.739
1575.27557 484.853
1575.32808 487.149
1575.38059 487.316
1575.43311 486.218
1575.48562 484.289
1575.53814 487.359
1575.59066 486.921
1575.64318 484.814
1575.6957 463.056
1575.74823 461.294
1575.80075 485.364
1575.85328 487.032
1575.90581 484.669
1575.95834 21538.5
1576.01087 4455.53
1576.06341 59720.5
1576.11594 414.19
1576.16848 473.722
1576.22102 487.377
1576.27356 487.986
1576.32611 486.505
1576.37865 486.536
1576.4312 487.149
1576.48375 466.483
1576.5363 42669.6
1576.58885 4583.46
1576.6414 488.269
1576.69396 489.337
1576.74652 28414.1
1576.79907 500.664
1576.85164 486.334
1576.9042 437.464
1576.95676 400.284
1577.00933 482.029
1577.0619 489.069
1577.11447 490.26
1577.16704 490.45
1577.21961 488.573
1577.27218 484.707
1577.32476 431.173
1577.37734 394.264
1577.42992 480.61
1577.4825 28805.3
1577.53509 491.192
1577.58767 491.435
1577.64026 490.548
1577.69285 486.324
1577.74544 453.309
1577.79803 366.906
1577.85062 480.01
1577.90322 488.905
1577.95582 47235.1
1578.00842 492.561
1578.06102 492.36
1578.11362 45420
1578.16623 477.213
1578.21883 354.327
1578.27144 468.405
1578.32405 45203.2
1578.37666 492.143
1578.42928 493.052
1578.48189 493.143
1578.53451 492.844
1578.58713 488.687
1578.63975 409.381
1578.69237 409.834
1578.74499 486.333
1578.79762 491.014
1578.85025 494.196
1578.90288 14518.4
1578.95551 494.714
1579.00814 493.285
1579.06077 481.081
1579.11341 361.117
1579.16605 472.502
1579.21869 493.146
1579.27133 493.521
1579.32397 495.887
1579.37662 42043.6
1579.42926 495.773
1579.48191 493.58
1579.53456 454.312
1579.58721 388.108
1579.63987 487.368
1579.69252 494.98
1579.74518 495.383
1579.79784 497.126
1579.8505 497.292
1579.90316 496.256
1579.95583 493.964
1580.00849 435.193
1580.06116 419.712
1580.11383 492.903
1580.1665 496.109
1580.21918 497.22
1580.27185 34042.8
1580.32453 51923.5
1580.37721 28244.2
1580.42989 19436.7
1580.48257 12720.1
1580.53525 5622.68
1580.58794 494.635
1580.64062 3560.78
1580.69331 498.627
1580.746 499.499
1580.7987 93470.3
1580.85139 107840
1580.90409 42009.5
1580.95678 29230
1581.00948 17934.2
1581.06218 11271.2
1581.11489 500.446
1581.16759 6166.59
1581.2203 561.851
1581.27301 3150.7
1581.32572 501.478
1581.37843 500.453
1581.43114 490.881
1581.48386 418.791
1581.53657 493.93
1581.58929 501.034
1581.64201 501.849
1581.69474 501.787
1581.74746 502.281
1581.80019 502.959
1581.85291 502.678
1581.90564 500.462
1581.95837 455.719
1582.01111 469.738
1582.06384 502.169
1582.11658 503.642
1582.16932 504.049
1582.22206 503.563
1582.2748 503.786
1582.32754 504.32
1582.38029 8998.97
1582.43303 495.153
1582.48578 448.268
1582.53853 500.522
1582.59128 504.412
1582.64404 505.206
1582.69679 505.511
1582.74955 505.321
1582.80231 505.471
1582.85507 505.581
1582.90783 504.57
1582.9606 479.504
1583.01336 489079
1583.06613 952.291
1583.1189 504.319
1583.17167 506.394
1583.22445 506.605
1583.27722 506.486
1583.33 4.53894e+06
1583.38278 506.924
1583.43556 506.049
1583.48834 483.134
1583.54112 489.532
1583.59391 506.941
1583.6467 507.871
1583.69949 508.177
1583.75228 508.339
1583.80507 508.402
1583.85786 19662.3
1583.91066 508.281
1583.96346 507.604
1584.01626 489.021
1584.06906 496.248
1584.12186 508.086
1584.17467 509.25
1584.22747 126647
1584.28028 22011.6
1584.33309 13106.5
1584.3859 509.94
1584.43872 509.891
1584.49153 509.46
1584.54435 496.855
1584.59717 500.145
1584.64999 510.14
1584.70281 510.691
1584.75564 510.908
1584.80846 1.61641e+06
1584.86129 510.607
1584.91412 510.324
1584.96695 511.011
1585.01978 511.181
1585.07262 503.851
1585.12546 502.251
1585.17829 511.378
1585.23113 512.039
1585.28398 23865.3
1585.33682 512.436
1585.38967 512.578
1585.44251 512.695
1585.49536 512.801
1585.54821 512.812
1585.60107 511.645
1585.65392 502.644
1585.70678 512.342
1585.75963 513.312
1585.81249 17791
1585.86535 513.767
1585.91822 513.908
1585.97108 514.026
1586.02395 514.134
1586.07682 514.218
1586.12969 514.07
1586.18256 509.498
1586.23543 56887.9
1586.28831 509.589
1586.34119 514.294
1586.39406 514.961
1586.44694 515.113
1586.49983 515.34
1586.55271 515.487
1586.6056 515.607
1586.65849 515.681
1586.71137 515.269
1586.76427 22707.8
1586.81716 515.273
1586.87005 515.976
1586.92295 525630
1586.97585 516.396
1587.02875 516.601
1587.08165 516.618
1587.13455 515.295
1587.18746 512.498
1587.24037 18252.5
1587.29328 515.46
1587.34619 514.569
1587.3991 517.016
1587.45201 517.608
1587.50493 517.789
1587.55785 517.974
1587.61077 518.123
1587.66369 518.198
1587.71661 518.216
1587.76953 518.355
1587.82246 518.567
1587.87539 517.432
1587.92832 517.567
1587.98125 518.988
1588.03419 519.178
1588.08712 519.296
1588.14006 519.277
1588.193 518.924
1588.24594 19030.5
1588.29888 519.829
1588.35182 519.934
1588.40477 520.055
1588.45772 519.258
1588.51067 519.439
1588.56362 520.423
1588.61657 520.214
1588.66953 520.311
1588.72248 15740.1
1588.77544 521.042
1588.8284 521.18
1588.88136 521.313
1588.93433 521.439
1588.98729 19935.6
1589.04026 521.148
1589.09323 521.205
1589.1462 521.74
1589.19917 522.078
1589.25214 522.23
1589.30512 522.362
1589.3581 522.476
1589.41108 522.491
1589.46406 522.616
1589.51704 522.857
1589.57003 522.916
1589.62301 4884.89
1589.676 1506.48
1589.72899 160587
1589.78198 5875.81
1589.83498 523.57
1589.88797 523.795
1589.94097 523.925
1589.99397 524.045
1590.04697 524.139
1590.09997 523.915
1590.15298 523.698
1590.20598 11846.9
1590.25899 521.668
1590.312 524.302
1590.36501 524.876
1590.41802 525.081
1590.47104 525.238
1590.52406 525.378
1590.57707 525.467
1590.63009 525.499
1590.68312 525.77
1590.73614 525.911
1590.78916 526.03
1590.84219 526.04
1590.89522 525.792
1590.94825 526.058
1591.00128 526.536
1591.05432 526.691
1591.10735 526.763
1591.16039 526.881
1591.21343 9230.35
1591.26647 527.192
1591.31952 527.342
1591.37256 527.493
1591.42561 527.612
1591.47866 9638.72
1591.53171 527.843
1591.58476 527.919
1591.63781 527.33
1591.69087 17066.6
1591.74392 527.862
1591.79698 528.402
1591.85004 528.576
1591.90311 528.613
1591.95617 528.904
1592.00924 529.065
1592.06231 529.199
1592.11537 529.323
1592.16845 529.412
1592.22152 529.497
1592.27459 529.252
1592.32767 529.533
1592.38075 529.77
1592.43383 528.451
1592.48691 13216.5
1592.54 529.704
1592.59308 530.381
1592.64617 530.597
1592.69926 548.224
1592.75235 5603.67
1592.80544 531.015
1592.85854 530.969
1592.91163 531.057
1592.96473 531.41
1593.01783 531.563
1593.07093 531.71
1593.12403 531.845
1593.17714 15871.3
1593.23025 23836
1593.28335 532.234
1593.33646 532.348
1593.38958 532.267
1593.44269 532.318
1593.49581 532.737
1593.54892 532.894
1593.60204 533.021
1593.65516 533.16
1593.70829 533.252
1593.76141 533.345
1593.81454 533.549
1593.86767 533.674
1593.9208 533.81
1593.97393 533.933
1594.02706 534.01
1594.0802 533.85
1594.13333 534.083
1594.18647 534.143
1594.23961 3229.7
1594.29275 530.668
1594.3459 534.167
1594.39904 534.822
1594.45219 534.788
1594.50534 533.23
1594.55849 534.664
1594.61164 534.82
1594.6648 535.379
1594.71795 2934.61
1594.77111 535.858
1594.82427 536.006
1594.87743 535.939
1594.9306 535.932
1594.98376 535.713
1595.03693 536.232
1595.0901 536.489
1595.14327 536.819
1595.19644 536.777
1595.24962 536.914
1595.30279 537.233
1595.35597 537.335
1595.40915 7058.54
1595.46233 537.633
1595.51551 537.598
1595.5687 537.675
1595.62188 537.959
1595.67507 537.996
1595.72826 538.123
1595.78145 538.187
1595.83465 538.225
1595.88784 538.487
1595.94104 538.776
1595.99424 538.487
1596.04744 538.637
1596.10064 539.037
1596.15385 538.21
1596.20705 536.69
1596.26026 537.788
1596.31347 539.054
1596.36668 539.455
1596.41989 539.807
1596.47311 539.061
1596.52633 539.803
1596.57954 540.034
1596.63277 539.154
1596.68599 551.682
1596.73921 1791.92
1596.79244 540.798
1596.84566 540.601
1596.89889 540.915
1596.95212 540.511
1597.00536 539.731
1597.05859 540.598
1597.11183 541.442
1597.16506 540.702
1597.2183 236206
1597.27155 753606
1597.32479 541.323
1597.37803 3819.05
1597.43128 3807.48
1597.48453 540.218
1597.53778 539.227
1597.59103 542.388
1597.64429 542.828
1597.69754 541.622
1597.7508 540.429
1597.80406 540.886
1597.85732 543.043
1597.91058 540.491
1597.96385 541.369
1598.01711 543.545
1598.07038 541.487
1598.12365 538.011
1598.17692 541.66
1598.2302 543.822
1598.28347 543.113
1598.33675 536.689
1598.39003 5504.74
1598.44331 544.362
1598.49659 544.435
1598.54987 536.701
1598.60316 537.151
1598.65645 543.159
1598.70974 542.054
1598.76303 540.572
1598.81632 527.559
1598.86962 544.45
1598.92291 545.394
1598.97621 543.158
1599.02951 526.249
1599.08281 535.661
1599.13612 547.462
1599.18942 548.427
1599.24273 545.861
1599.29604 514.048
1599.34935 545.944
1599.40266 551.542
1599.45598 552.199
1599.50929 540.369
1599.56261 515.962
1599.61593 552.637
1599.66925 552.796
1599.72257 555.844
1599.7759 534.944
1599.82923 515.241
1599.88255 556.672
1599.93588 559.551
1599.98922 557.761
1600.04255 543.453
1600.09589 497.514
1600.14922 559.302
1600.20256 563.665
1600.2559 564.251
1600.30925 557.902
1600.36259 478.126
1600.41594 556.239
1600.46929 567.308
1600.52264 568.586
1600.57599 566.616
1600.62934 504.727
1600.6827 515.642
1600.73605 567.993
1600.78941 572.275
1600.84277 572.544
1600.89613 559.721
1600.9495 457.58
1601.00286 564.484
1601.05623 575.201
1601.1096 576.294
1601.16297 575.448
1601.21635 512.956
1601.26972 487.559
1601.3231 574.279
1601.37648 579.28
1601.42986 581.437
1601.48324 577.52
1601.53662 490.14
1601.59001 502.904
1601.64339 641.864
1601.69678 757.414
1601.75017 586.857
1601.80357 581.756
1601.85696 481.026
1601.91036 505.445
1601.96375 586.588
1602.01715 590.78
1602.07056 590.692
1602.12396 583.686
1602.17736 490.032
1602.23077 491.976
1602.28418 590.638
1602.33759 1107.18
1602.391 1109.77
1602.44442 594.081
1602.49783 537.209
1602.55125 450.592
1602.60467 590.023
1602.65809 600.462
1602.71151 602.592
1602.76494 601.973
1602.81836 589.163
1602.87179 430.994
1602.92522 568.079
1602.97865 604.164
1603.03209 607.278
1603.08552 3.30482e+06
1603.13896 605.091
1603.1924 523.348
1603.24584 482.312
1603.29928 601.595
1603.35272 612.07
1603.40617 614.133
1603.45962 613.95
1603.51307 606.445
1603.56652 483.731
1603.61997 541.838
1603.67343 614.471
1603.72688 616.803
1603.78034 620.283
1603.8338 619.84
1603.88726 607.686
1603.94073 464.738
1603.99419 593.614
1604.04766 622.464
1604.10113 1228.14
1604.1546 893.153
1604.20807 625.436
1604.26155 624.605
1604.31502 1286.01
1604.3685 610.414
1604.42198 629.904
1604.47546 632.609
1604.52895 633.566
1604.58243 631.785
1604.63592 623.858
1604.68941 522.68
1604.7429 616.352
1604.79639 636.779
1604.84989 639.287
1604.90338 640.424
1604.95688 640.838
1605.01038 638.376
1605.06388 583.113
1605.11738 608.433
1605.17089 643.493
1605.22439 645.957
1605.2779 647.204
1605.33141 648.078
1605.38492 648.412
1605.43844 636.444
1605.49195 630.001
1605.54547 647.292
1605.59899 652.27
1605.65251 653.61
1605.70603 2076.96
1605.75956 655.463
1605.81308 656.261
1605.86661 656.852
1605.92014 657.666
1605.97367 2075.82
1606.02721 649.219
1606.08074 604.455
1606.13428 654.921
1606.18782 661.079
1606.24136 662.487
1606.2949 663.36
1606.34844 663.566
1606.40199 662.21
1606.45554 615.553
1606.50909 594.205
1606.56264 662.306
1606.61619 666.959
1606.66975 668.428
1606.7233 669.607
1606.77686 669.708
1606.83042 666.333
1606.88398 586.39
1606.93755 594.146
1606.99111 666.589
1607.04468 673.462
1607.09825 675.305
1607.15182 675.203
1607.20539 675.301
1607.25897 671.335
1607.31254 572.84
1607.36612 604.858
1607.4197 690.66
1607.47328 677.568
1607.52687 680.49
1607.58045 682.685
1607.63404 681.524
1607.68763 677.656
1607.74122 579.62
1607.79481 573.634
1607.8484 679.278
1607.902 685.326
1607.9556 1.19756e+06
1608.0092 46332
1608.0628 751.713
1608.1164 685.727
1608.17001 630.392
1608.22361 522.786
1608.27722 679.86
1608.33083 690.842
1608.38444 692.676
1608.43806 692.676
1608.49167 695.051
1608.54529 693.966
1608.59891 682.764
1608.65253 512.276
1608.70615 649.128
1608.75978 696.846
1608.8134 701.871
1608.86703 703.555
1608.92066 704.151
1608.97429 699.415
1609.02792 696.549
1609.08156 614.685
1609.1352 559.191
1609.18884 697.71
1609.24248 707.414
1609.29612 703.642
1609.34976 708.749
1609.40341 711.783
1609.45706 711.372
1609.51071 703.687
1609.56436 569.547
1609.61801 617.633
1609.67166 708.129
1609.72532 716.142
1609.77898 718.336
1609.83264 719.426
1609.8863 717.679
1609.93997 713.63
1609.99363 701.265
1610.0473 542.091
1610.10097 684.985
1610.15464 720.153
1610.20831 722.36
1610.26199 722.085
1610.31566 721.971
1610.36934 726.418
1610.42302 725.957
1610.4767 709.304
1610.53039 553.867
1610.58407 697.717
1610.63776 726.111
1610.69145 728.232
1610.74514 733.935
1610.79883 735.483
1610.85252 735.605
1610.90622 729.452
1610.95992 724.185
1611.01362 580.67
1611.06732 703.438
1611.12102 737.734
1611.17473 741.01
1611.22843 739.251
1611.28214 739.317
1611.33585 743.438
1611.38956 738.239
1611.44328 738.728
1611.49699 644.179
1611.55071 676.815
1611.60443 739.547
1611.65815 747.611
1611.71187 748.97
1611.7656 746.119
1611.81932 751.888
1611.87305 752.198
1611.92678 750.341
1611.98051 699.606
1612.03425 655.166
1612.08798 749.367
1612.14172 751.909
1612.19546 758.183
1612.2492 759.626
1612.30294 758.958
1612.35669 757.584
1612.41043 760.809
1612.46418 755.965
1612.51793 664.265
1612.57168 732.172
1612.62544 763.664
1612.67919 765.215
1612.73295 764.618
1612.78671 768.476
1612.84047 1.75324e+06
1612.89423 1.74668e+06
1612.94799 769.037
1613.00176 756.06
1613.05553 682.595
1613.1093 764.656
1613.16307 773.467
1613.21684 775.361
1613.27062 775.412
1613.32439 775.767
1613.37817 773.252
1613.43195 776.646
1613.48573 777.304
1613.53952 745.999
1613.5933 728.208
1613.64709 779.432
1613.70088 783.13
1613.75467 784.518
1613.80846 787.377
1613.86226 787.712
1613.91605 785.671
1613.96985 787.698
1614.02365 787.453
1614.07745 758.519
1614.13126 752.022
1614.18506 789.222
1614.23887 791.464
1614.29268 792.136
1614.34649 794.383
1614.4003 802.184
1614.45411 795.965
1614.50793 802.125
1614.56175 796.141
1614.61557 778.365
1614.66939 764.346
1614.72321 795.528
1614.77704 800.386
1614.83086 801.583
1614.88469 802.582
1614.93852 800.97
1614.99236 804.345
1615.04619 805.43
1615.10003 805.299
1615.15386 798.961
1615.2077 772.477
1615.26154 806.012
1615.31539 808.326
1615.36923 806.473
1615.42308 811.381
1615.47693 812.177
1615.53078 811.785
1615.58463 809.972
1615.63848 814.815
1615.69234 814.955
1615.74619 797.099
1615.80005 801.245
1615.85391 817.129
1615.90778 819.408
1615.96164 819.501
1616.01551 816.141
1616.06938 821.919
1616.12325 823.062
1616.17712 823.295
1616.23099 820.072
1616.28487 819.644
1616.33874 808.041
1616.39262 825.662
1616.4465 822.228
1616.50039 827.413
1616.55427 828.986
1616.60816 827.226
1616.66204 826.84
1616.71593 827.786
1616.76982 833.102
1616.82372 833.266
1616.87761 820.774
1616.93151 823.943
1616.98541 835.97
1617.03931 837.819
1617.09321 838.292
1617.14711 834.244
1617.20102 838.397
1617.25493 841.03
1617.30884 840.461
1617.36275 837.845
1617.41666 843.534
1617.47058 838.49
1617.52449 841.135
1617.57841 845.763
1617.63233 841.156
1617.68625 847.89
1617.74018 849.172
1617.7941 845.722
1617.84803 848.734
1617.90196 851.882
1617.95589 850.729
1618.00982 852.847
1618.06376 848.511
1618.11769 846.964
1618.17163 855.902
1618.22557 856.462
1618.27951 851.867
1618.33346 858.501
1618.3874 859.815
1618.44135 860.251
1618.4953 861.647
1618.54925 861.05
1618.6032 858.2
1618.65716 859.928
1618.71111 858.864
1618.76507 861.28
1618.81903 862.324
1618.87299 864.091
1618.92696 866.755
1618.98092 869.393
1619.03489 869.123
1619.08886 865.991
1619.14283 871.562
1619.1968 870.288
1619.25077 870.389
1619.30475 871.929
1619.35873 875.584
1619.41271 876.512
1619.46669 954433
1619.52067 878.125
1619.57466 875.281
1619.62864 925.683
1619.68263 943.098
1619.73662 879.308
1619.79061 882.636
1619.84461 883.59
1619.8986 883.089
1619.9526 884.66
1620.0066 886.192
1620.0606 885.207
1620.1146 885.338
1620.16861 887.115
1620.22261 887.177
1620.27662 890.525
1620.33063 891.544
1620.38465 892.149
1620.43866 892.554
1620.49267 892.962
1620.54669 892.541
1620.60071 892.594
1620.65473 894.461
1620.70875 894.118
1620.76278 897.289
1620.81681 899.339
1620.87083 1072.8
1620.92486 901.199
1620.9789 901.959
1621.03293 901.025
1621.08696 902.77
1621.141 1073.44
1621.19504 901.903
1621.24908 905.018
1621.30312 905.578
1621.35717 907.208
1621.41121 908.865
1621.46526 908.285
1621.51931 908.891
1621.57336 910.104
1621.62742 911.754
1621.68147 910.286
1621.73553 912.542
1621.78959 914.82
1621.84365 914.36
1621.89771 916.646
1621.95177 917.482
1622.00584 917.842
1622.05991 920.768
1622.11398 944.238
1622.16805 941.876
1622.22212 919.319
1622.2762 923.715
1622.33027 925.386
1622.38435 923.786
1622.43843 937.892
1622.49252 940.73
1622.5466 927.127
1622.60068 928.223
1622.65477 929.181
1622.70886 929.757
1622.76295 928.396
1622.81705 930.432
1622.87114 930.476
1622.92524 1135.05
1622.97934 1135.57
1623.03344 934.881
1623.08754 935.865
1623.14164 936.631
1623.19575 937.335
1623.24986 937.947
1623.30396 938.038
1623.35808 939.715
1623.41219 1069.18
1623.4663 1.13275e+06
1623.52042 27238.1
1623.57454 1.15303e+06
1623.62866 943.987
1623.68278 944.206
1623.7369 945.937
1623.79103 943.633
1623.84516 944.947
1623.89928 944.712
1623.95342 947.053
1624.00755 950.651
1624.06168 949.357
1624.11582 950.399
1624.16996 952.83
1624.2241 954.279
1624.27824 951.704
1624.33238 955.729
1624.38653 956.839
1624.44067 957.74
1624.49482 958.776
1624.54897 1380.04
1624.60313 1983.61
1624.65728 2401.53
1624.71144 961.925
1624.7656 962.939
1624.81976 963.82
1624.87392 965.082
1624.92808 965.782
1624.98225 966.829
1625.03641 967.472
1625.09058 967.966
1625.14475 968.785
1625.19892 970.314
1625.2531 1843.55
1625.30727 1837.93
1625.36145 970.928
1625.41563 973.367
1625.46981 974.205
1625.524 974.056
1625.57818 975.13
1625.63237 975.206
1625.68656 977.07
1625.74075 977.542
1625.79494 978.604
1625.84913 980.587
1625.90333 976.113
1625.95753 975.015
1626.01173 980.623
1626.06593 980.92
1626.12013 981.857
1626.17434 983.508
1626.22854 985.316
1626.28275 986.757
1626.33696 988.676
1626.39117 989.667
1626.44539 990.49
1626.4996 990.742
1626.55382 986.969
1626.60804 992.864
1626.66226 993.944
1626.71648 994.82
1626.77071 995.775
1626.82494 996.358
1626.87916 997.55
1626.93339 998.248
1626.98763 9137.06
1627.04186 9134.25
1627.0961 1001.15
1627.15033 996.863
1627.20457 995.088
1627.25881 998.72
1627.31306 1000.12
1627.3673 1002.62
1627.42155 1005.87
1627.4758 1006.81
1627.53005 1004.77
1627.5843 1007.53
1627.63855 1009.27
1627.69281 1010.19
1627.74706 1011.12
1627.80132 1011.6
1627.85558 1013.15
1627.90985 1013.99
1627.96411 5698.06
1628.01838 5698.43
1628.07265 1000.24
1628.12692 1001.35
1628.18119 1005.9
1628.23546 1006.95
1628.28974 1005.67
1628.34401 1004.29
1628.39829 1004.68
1628.45257 1004.49
1628.50686 1001.53
1628.56114 997.192
1628.61543 996.214
1628.66972 993.545
1628.72401 990.306
1628.7783 996.134
1628.83259 995.515
1628.88689 993.614
1628.94118 993.184
1628.99548 991.166
1629.04978 988.978
1629.10409 989.301
1629.15839 987.996
1629.2127 985.695
1629.267 984.642
1629.32131 978.79
1629.37563 978.823
1629.42994 979.48
1629.48425 980.171
1629.53857 978.044
1629.59289 977.602
1629.64721 976.306
1629.70153 972.794
1629.75586 973.442
1629.81018 972.556
1629.86451 970.742
1629.91884 969.184
1629.97317 968.159
1630.02751 965.892
1630.08184 964.631
1630.13618 964.744
1630.19052 36987.4
1630.24486 36973.7
1630.2992 960.538
1630.35354 955.15
1630.40789 948.167
1630.46224 940.841
1630.51659 929.379
1630.57094 936.399
1630.62529 950.085
1630.67965 937.652
1630.734 942.508
1630.78836 944.481
1630.84272 947.466
1630.89709 946.542
1630.95145 944.051
1631.00582 942.392
1631.06018 941.341
1631.11455 938.022
1631.16893 939.019
1631.2233 938.837
1631.27767 937.451
1631.33205 932.422
1631.38643 932.293
1631.44081 933.22
1631.49519 936.73
1631.54958 36990.3
1631.60396 3777.35
1631.65835 928.361
1631.71274 503420
1631.76713 12360.3
1631.82152 924.602
1631.87592 922.187
1631.93031 921.326
1631.98471 920.6
1632.03911 916.447
1632.09352 909.317
1632.14792 915.537
1632.20233 915.371
1632.25673 913.226
1632.31114 911.976
1632.36555 910.531
1632.41997 901.882
1632.47438 904.435
1632.5288 905.074
1632.58322 904.768
1632.63764 901.196
1632.69206 898.01
1632.74648 900.301
1632.80091 898.361
1632.85534 887.491
1632.90977 877.174
1632.9642 887.816
1633.01863 876.753
1633.07307 878.353
1633.1275 888.427
1633.18194 882.787
1633.23638 888.933
1633.29082 888.524
1633.34527 887.918
1633.39971 886.373
1633.45416 884.019
1633.50861 879.305
1633.56306 877.298
1633.61751 878.263
1633.67197 876.87
1633.72643 877.381
1633.78088 875.515
1633.83534 869.736
1633.88981 874.232
1633.94427 872.786
1633.99874 872.086
1634.0532 871.3
1634.10767 870.149
1634.16214 124787
1634.21662 124742
1634.27109 863.69
1634.32557 862.629
1634.38005 861.637
1634.43453 858.149
1634.48901 856.471
1634.54349 858.956
1634.59798 858.009
1634.65247 856.809
1634.70696 855.869
1634.76145 854.549
1634.81594 852.209
1634.87043 845.232
1634.92493 847.109
1634.97943 845.331
1635.03393 7572.31
1635.08843 546070
1635.14294 845.33
1635.19744 554447
1635.25195 841.592
1635.30646 839.796
1635.36097 832.015
1635.41548 759.689
1635.47 781.788
1635.52451 832.528
1635.57903 832.785
1635.63355 833.202
1635.68807 843.405
1635.7426 830.456
1635.79712 828.603
1635.85165 827.236
1635.90618 836.292
1635.96071 822.943
1636.01524 63004.4
1636.06978 63072.1
1636.12432 817.49
1636.17885 819.043
1636.23339 817.167
1636.28794 818.01
1636.34248 816.948
1636.39703 815.615
1636.45157 813.656
1636.50612 812.264
1636.56067 810.921
1636.61523 805.835
1636.66978 797.522
1636.72434 800.808
1636.7789 805.17
1636.83346 804.062
1636.88802 819.291
1636.94258 802.006
1636.99715 801.33
1637.05172 800.041
1637.10629 797.978
1637.16086 795.014
1637.21543 794.372
1637.27 811.257
1637.32458 793.436
1637.37916 790.772
1637.43374 786.028
1637.48832 788.551
1637.54291 784.287
1637.59749 781.596
1637.65208 722.264
1637.70667 704.91
1637.76126 754.924
1637.81585 750.511
1637.87045 755.842
1637.92504 776.202
1637.97964 777.428
1638.03424 775.709
1638.08884 774.355
1638.14345 773.318
1638.19805 768.5
1638.25266 767.819
1638.30727 769.929
1638.36188 768.76
1638.41649 766.9
1638.47111 765.226
1638.52573 762.36
1638.58034 754.658
1638.63496 759.623
1638.68959 760.627
1638.74421 759.647
1638.79884 291347
1638.85346 359820
1638.90809 750.131
1638.96272 745.887
1639.01736 751.034
1639.07199 749.427
1639.12663 744.792
1639.18127 748.347
1639.23591 746.093
1639.29055 737.22
1639.34519 740.534
1639.39984 743.165
1639.45449 739.461
1639.50914 731.589
1639.56379 732.699
1639.61844 736.635
1639.6731 723.16
1639.72775 730.95
1639.78241 730.525
1639.83707 733.303
1639.89173 732.137
1639.9464 730.492
1640.00106 724.997
1640.05573 712.974
1640.1104 725.732
1640.16507 724.322
1640.21974 720.846
1640.27442 662.66
1640.3291 636.219
1640.38377 617.096
1640.43845 697.402
1640.49314 709.925
1640.54782 713.405
1640.60251 714.898
1640.65719 713.767
1640.71188 712.162
1640.76658 699.466
1640.82127 695.63
1640.87596 707.848
1640.93066 707.291
1640.98536 705.244
1641.04006 703.938
1641.09476 702.163
1641.14947 688.265
1641.20417 685.378
1641.25888 698.853
1641.31359 698.202
1641.3683 696.99
1641.42301 695.613
1641.47773 298312
1641.53244 679.532
1641.58716 673.844
1641.64188 689.467
1641.69661 688.386
1641.75133 686.946
1641.80606 686.427
1641.86078 684.835
1641.91551 676.307
1641.97025 657.919
1642.02498 679.721
1642.07971 679.829
1642.13445 678.703
1642.18919 677.266
1642.24393 675.474
1642.29867 670.003
1642.35342 644.308
1642.40816 669.781
1642.46291 670.604
1642.51766 669.416
1642.57241 668.107
1642.62716 666.586
1642.68192 663.344
1642.73668 636.917
1642.79144 651.039
1642.8462 648.034
1642.90096 509.603
1642.95572 562.294
1643.01049 651.601
1643.06526 654.345
1643.12003 638.075
1643.1748 637.988
1643.22957 651.672
1643.28435 648.976
1643.33912 644.864
1643.3939 648.269
1643.44868 647.034
1643.50347 642.017
1643.55825 619.826
1643.61304 641.877
1643.66782 641.834
1643.72261 640.017
1643.77741 639.169
1643.8322 636.878
1643.88699 635.98
1643.94179 618.654
1643.99659 625.419
1644.05139 632.758
1644.10619 631.795
1644.161 630.552
1644.21581 1.2436e+06
1644.27061 627.641
1644.32542 621.182
1644.38024 609.451
1644.43505 623.153
1644.48986 622.633
1644.54468 621.447
1644.5995 620.143
1644.65432 618.762
1644.70914 102554
1644.76397 608.643
1644.81879 101639
1644.87362 613.27
1644.92845 612.294
1644.98329 611.011
1645.03812 609.656
1645.09295 608.113
1645.14779 604.421
1645.20263 593.303
1645.25747 602.26
1645.31231 602.463
1645.36716 600.777
1645.42201 597.311
1645.47685 583.601
1645.5317 404.175
1645.58656 492.249
1645.64141 587.091
1645.69627 592.124
1645.75112 590.895
1645.80598 588.749
1645.86084 589.784
1645.91571 588.097
1645.97057 583.421
1646.02544 584.965
1646.08031 583.654
1646.13518 581.454
1646.19005 579.885
1646.24492 575.258
1646.2998 578.664
1646.35468 578.27
1646.40956 576.788
1646.46444 574.206
1646.51932 573.674
1646.5742 572.912
1646.62909 570.101
1646.68398 560.865
1646.73887 568.558
1646.79376 567.815
1646.84866 566.158
1646.90355 564.092
1646.95845 563.83
1647.01335 562.364
1647.06825 554.872
1647.12315 550.053
1647.17806 558.151
1647.23297 557.349
1647.28787 556.099
1647.34278 554.4
1647.3977 552.733
1647.45261 550.136
1647.50753 540.754
1647.56245 199032
1647.61737 547.313
1647.67229 545.459
1647.72721 200242
1647.78213 542.652
1647.83706 542.366
1647.89199 507384
1647.94692 526.068
1648.00185 526.9
1648.05679 534.899
1648.11172 532.66
1648.16666 524.19
1648.2216 397.19
1648.27654 492.456
1648.33149 523.909
1648.38643 514.741
1648.44138 512.713
1648.49633 520.141
1648.55128 522.87
1648.60623 522.245
1648.66119 520.419
1648.71614 521.709
1648.7711 520.081
1648.82606 507.661
1648.88102 505.816
1648.93599 513.066
1648.99095 510.807
1649.04592 513.852
1649.10089 511.805
1649.15586 509.527
1649.21083 506.775
1649.26581 495.771
1649.32078 491.793
1649.37576 503.456
1649.43074 502.238
1649.48572 502.65
1649.54071 500.735
1649.59569 498.007
1649.65068 495.191
1649.70567 492.933
1649.76066 479.517
1649.81565 494.864
1649.87065 494.412
1649.92564 493.218
1649.98064 491.975
1650.03564 490.484
1650.09065 487.417
1650.14565 485.42
1650.20066 734944
1650.25566 753892
1650.31067 483.884
1650.36568 481.821
1650.4207 479.205
1650.47571 477.165
1650.53073 476.306
1650.58575 476.162
1650.64077 464.665
1650.69579 467.576
1650.75081 471.748
1650.80584 467.123
1650.86087 464.143
1650.9159 416.124
1650.97093 338.996
1651.02596 454.911
1651.081 457.014
1651.13603 453.771
1651.19107 462.181
1651.24611 459.335
1651.30116 458.853
1651.3562 458.042
1651.41125 456.782
1651.46629 454.894
1651.52134 450.817
1651.5764 441.297
1651.63145 451.011
1651.6865 449.952
1651.74156 449.937
1651.79662 448.719
1651.85168 447.336
1651.90674 445.747
1651.96181 442.561
1652.01687 427.921
1652.07194 435.029
1652.12701 440.344
1652.18208 439.458
1652.23716 438.224
1652.29223 436.942
1652.34731 435.574
1652.40239 433.593
1652.45747 431.573
1652.51255 424.493
1652.56764 429.507
1652.62273 428.996
1652.67781 427.78
1652.7329 426.543
1652.788 425.239
1652.84309 423.901
1652.89819 422.492
1652.95328 418.691
1653.00838 415.808
1653.06348 418.171
1653.11859 416.222
1653.17369 415.782
1653.2288 414.569
1653.28391 412.775
1653.33902 411.692
1653.39413 410.081
1653.44924 404.165
1653.50436 398.97
1653.55948 404.895
1653.6146 403.331
1653.66972 392.053
1653.72484 287.962
1653.77997 386.429
1653.83509 398.212
1653.89022 399.846
1653.94535 394.058
1654.00048 395.62
1654.05562 394.873
1654.11076 393.104
1654.16589 392.21
1654.22103 390.407
1654.27617 389.505
1654.33132 390.079
1654.38646 386.859
1654.44161 383.44
1654.49676 383.934
1654.55191 383.02
1654.60706 381.894
1654.66222 380.415
1654.71737 379.211
1654.77253 377.17
1654.82769 375.475
1654.88285 374.626
1654.93802 370.134
1654.99318 371.026
1655.04835 367.369
1655.10352 367.593
1655.15869 368.327
1655.21386 364.907
1655.26904 365.57
1655.32421 363.178
1655.37939 531892
1655.43457 360.767
1655.48976 359.179
1655.54494 358.35
1655.60013 358.151
1655.65531 356.256
1655.7105 351.87
1655.76569 352.59
1655.82089 349.17
1655.87608 348.865
1655.93128 348.955
1655.98648 348.575
1656.04168 347.127
1656.09688 344.667
1656.15208 344.149
1656.20729 342.332
1656.2625 341.942
1656.31771 340.594
1656.37292 338.915
1656.42813 336.473
1656.48335 333.399
1656.53856 289.73
1656.59378 324.359
1656.649 332.021
1656.70423 330.54
1656.75945 330.416
1656.81468 329.151
1656.86991 327.603
1656.92514 325.953
1656.98037 325.15
1657.0356 323.025
1657.09084 320.902
1657.14607 319.62
1657.20131 318.694
1657.25655 317.674
1657.3118 315.238
1657.36704 315.622
1657.42229 314.674
1657.47754 313.395
1657.53279 312.231
1657.58804 310.781
1657.64329 309.287
1657.69855 308.159
1657.7538 305.979
1657.80906 303.814
1657.86433 303.814
1657.91959 302.924
1657.97485 301.283
1658.03012 300.015
1658.08539 299.058
1658.14066 297.529
1658.19593 296.306
1658.25121 295.151
1658.30648 293.84
1658.36176 292.493
1658.41704 290.86
1658.47232 289.739
1658.5276 288.381
1658.58289 30802.6
1658.63818 284.899
1658.69346 30865.1
1658.74876 282.591
1658.80405 281.282
1658.85934 280.481
1658.91464 278.834
1658.96994 277.778
1659.02524 276.311
1659.08054 275.162
1659.13584 274.048
1659.19115 272.596
1659.24645 270.852
1659.30176 269.88
1659.35707 267.355
1659.41239 247.864
1659.4677 264.188
1659.52302 264.605
1659.57834 263.416
1659.63366 262.019
1659.68898 260.84
1659.7443 259.495
1659.79963 256.976
1659.85496 255.9
1659.91029 254.949
1659.96562 253.347
1660.02095 253.051
1660.07629 253.268
1660.13162 253.655
1660.18696 253.785
1660.2423 253.824
1660.29764 253.933
1660.35299 254.067
1660.40833 254.148
1660.46368 254.211
1660.51903 254.309
1660.57438 254.415
1660.62974 254.484
1660.68509 254.578
1660.74045 254.675
1660.79581 254.761
1660.85117 254.82
1660.90653 254.577
1660.9619 254.801
1661.01726 56262.6
1661.07263 255.16
1661.128 255.232
1661.18337 56055.7
1661.23875 266.146
1661.29412 253.372
1661.3495 251.85
1661.40488 254.699
1661.46026 255.173
1661.51564 255.776
1661.57103 255.681
1661.62641 255.616
1661.6818 255.47
1661.73719 256.143
1661.79258 256.164
1661.84798 256.212
1661.90337 255.438
1661.95877 255.92
1662.01417 256.065
1662.06957 256.493
1662.12498 256.546
1662.18038 256.684
1662.23579 256.467
1662.2912 248.113
1662.34661 242.967
1662.40202 254.887
1662.45743 256.616
1662.51285 256.697
1662.56827 256.893
1662.62369 256.434
1662.67911 257.464
1662.73453 257.759
1662.78996 257.647
1662.84539 257.641
1662.90082 257.604
1662.95625 257.882
1663.01168 258.169
1663.06711 257.975
1663.12255 258.057
1663.17799 258.438
1663.23343 258.529
1663.28887 258.106
1663.34431 258.148
1663.39976 258.62
1663.45521 256.623
1663.51066 256.567
1663.56611 258.754
1663.62156 259.124
1663.67702 259.209
1663.73247 259.316
1663.78793 258.945
1663.84339 258.922
1663.89886 259.382
1663.95432 259.137
1664.00979 259.335
1664.06525 259.793
1664.12072 259.962
1664.17619 260.035
1664.23167 260
1664.28714 259.838
1664.34262 260.155
1664.3981 260.237
1664.45358 260.14
1664.50906 260.544
1664.56455 260.627
1664.62003 260.735
1664.67552 260.811
1664.73101 260.613
1664.7865 260.902
1664.842 261.035
1664.89749 260.825
1664.95299 260.334
1665.00849 261.092
1665.06399 261.351
1665.1195 260.971
1665.175 260.138
1665.23051 260.881
1665.28602 254.988
1665.34153 242.613
1665.39704 242.143
1665.45255 220.419
1665.50807 234.328
1665.56359 224.009
1665.61911 222.746
1665.67463 257.971
1665.73015 229.427
1665.78568 231.581
1665.8412 259.77
1665.89673 256.371
1665.95226 196.24
1666.0078 246.087
1666.06333 261.179
1666.11887 260.682
1666.1744 225.422
1666.22995 236.171
1666.28549 258.581
1666.34103 262.288
1666.39658 261.807
1666.45212 232.974
1666.50767 245.142
1666.56322 262.697
1666.61878 263.427
1666.67433 263.301
1666.72989 260.503
1666.78545 237.593
1666.84101 251.383
1666.89657 263.718
1666.95213 264.168
1667.0077 264.201
1667.06327 261.033
1667.11884 250.905
1667.17441 254.612
1667.22998 263.96
1667.28556 264.231
1667.34114 260.614
1667.39671 260.034
1667.4523 262.986
1667.50788 265.092
1667.56346 265.315
1667.61905 265.325
1667.67464 265.142
1667.73023 264.214
1667.78582 265.195
1667.84141 265.428
1667.89701 263.944
1667.95261 264.688
1668.00821 265.043
1668.06381 265.604
1668.11941 264.991
1668.17501 262.844
1668.23062 265.43
1668.28623 262.608
1668.34184 265.406
1668.39745 265.106
1668.45307 265.627
1668.50868 266.28
1668.5643 266.787
1668.61992 265.777
1668.67554 266.375
1668.73117 264.384
1668.78679 263.456
1668.84242 267.102
1668.89805 415150
1668.95368 3163.65
1669.00931 267.616
1669.06494 267.65
1669.12058 267.728
1669.17622 267.233
1669.23186 3.87218e+06
1669.2875 266.734
1669.34315 267.298
1669.39879 267.013
1669.45444 267.835
1669.51009 267.894
1669.56574 267.888
1669.62139 268.418
1669.67705 268.4
1669.7327 268.084
1669.78836 267.854
1669.84402 268.311
1669.89969 268.902
1669.95535 269.089
1670.01102 269.185
1670.06668 269.254
1670.12235 269.296
1670.17803 269.367
1670.2337 51718.6
1670.28937 74844.5
1670.34505 269.362
1670.40073 269.192
1670.45641 269.335
1670.51209 268.972
1670.56778 269.487
1670.62347 267.992
1670.67915 268.783
1670.73484 270.097
1670.79054 269.939
1670.84623 275.143
1670.90193 1.40345e+06
1670.95762 270.603
1671.01332 270.648
1671.06903 270.654
1671.12473 270.521
1671.18043 270.765
1671.23614 270.594
1671.29185 269.934
1671.34756 255.399
1671.40327 269.47
1671.45899 271.23
1671.5147 271.445
1671.57042 271.57
1671.62614 271.619
1671.68186 271.673
1671.73759 269.944
1671.79331 271.655
1671.84904 271.998
1671.90477 272.146
1671.9605 272.091
1672.01623 272.063
1672.07197 272.38
1672.1277 272.493
1672.18344 272.359
1672.23918 272.631
1672.29493 272.56
1672.35067 272.411
1672.40642 272.464
1672.46216 49751
1672.51791 273.067
1672.57366 273.111
1672.62942 273.256
1672.68517 273.389
1672.74093 273.346
1672.79669 272.959
1672.85245 273.578
1672.90821 273.728
1672.96398 273.787
1673.01974 273.581
1673.07551 273.794
1673.13128 273.923
1673.18705 273.97
1673.24283 474265
1673.2986 7289.79
1673.35438 274.051
1673.41016 7018.84
1673.46594 555.672
1673.52172 274.361
1673.57751 274.244
1673.6333 274.832
1673.68909 274.93
1673.74488 274.902
1673.80067 274.865
1673.85646 274.555
1673.91226 274.205
1673.96806 275.301
1674.02386 275.331
1674.07966 275.457
1674.13546 275.596
1674.19127 275.689
1674.24707 275.704
1674.30288 275.277
1674.35869 274.599
1674.41451 255.616
1674.47032 248.391
1674.52614 274.704
1674.58196 275.968
1674.63778 276.286
1674.6936 276.473
1674.74942 276.596
1674.80525 276.685
1674.86108 276.755
1674.91691 276.868
1674.97274 276.593
1675.02857 275.795
1675.08441 277.081
1675.14024 277.228
1675.19608 277.276
1675.25192 277.353
1675.30777 277.418
1675.36361 12313.6
1675.41946 277.176
1675.47531 274.691
1675.53116 17828.3
1675.58701 277.77
1675.64286 12357
1675.69872 278.019
1675.75458 278.193
1675.81043 278.278
1675.8663 278.357
1675.92216 278.01
1675.97802 278.478
1676.03389 278.611
1676.08976 278.216
1676.14563 278.034
1676.2015 278.87
1676.25738 278.931
1676.31325 10407.8
1676.36913 128131
1676.42501 279.267
1676.48089 279.35
1676.53678 279.375
1676.59266 279.517
1676.64855 279.61
1676.70444 279.687
1676.76033 279.732
1676.81622 279.397
1676.87212 276.601
1676.92801 279.656
1676.98391 280.056
1677.03981 279.945
1677.09572 279.986
1677.15162 280.1
1677.20753 279.999
1677.26343 279.569
1677.31934 279.775
1677.37525 279.368
1677.43117 280.484
1677.48708 280.212
1677.543 276.22
1677.59892 231.421
1677.65484 272.508
1677.71076 280.276
1677.76669 279.425
1677.82261 280.207
1677.87854 281.408
1677.93447 281.567
1677.9904 281.602
1678.04634 281.73
1678.10227 281.881
1678.15821 281.971
1678.21415 282.037
1678.27009 282.099
1678.32604 282.142
1678.38198 281.531
1678.43793 277.881
1678.49388 282.017
1678.54983 282.492
1678.60578 282.405
1678.66174 282.202
1678.71769 282.709
1678.77365 282.936
1678.82961 283.032
1678.88557 283.12
1678.94154 283.199
1678.9975 283.296
1679.05347 283.386
1679.10944 283.461
1679.16541 283.548
1679.22138 283.645
1679.27736 283.704
1679.33333 283.33
1679.38931 5552.29
1679.44529 283.824
1679.50128 283.739
1679.55726 284.142
1679.61325 284.245
1679.66923 284.342
1679.72522 284.431
1679.78122 284.51
1679.83721 284.573
1679.89321 284.536
1679.9492 283.108
1680.0052 283.911
1680.0612 284.877
1680.11721 285.02
1680.17321 285.126
1680.22922 22753.2
1680.28523 11697
1680.34124 285.394
1680.39725 285.474
1680.45326 285.516
1680.50928 285.611
1680.5653 285.67
1680.62132 285.645
1680.67734 285.416
1680.73336 282.367
1680.78939 247.398
1680.84541 277.231
1680.90144 285.611
1680.95747 285.996
1681.01351 286.133
1681.06954 285.368
1681.12558 286.015
1681.18162 286.671
1681.23766 286.791
1681.2937 286.881
1681.34974 286.949
1681.40579 286.791
1681.46184 286.133
1681.51789 286.021
1681.57394 285.488
1681.62999 286.689
1681.68605 287.455
1681.7421 287.34
1681.79816 287.193
1681.85422 287.368
1681.91029 287.464
1681.96635 287.914
1682.02242 288.197
1682.07849 288.746
1682.13456 289.066
1682.19063 289.633
1682.2467 290.249
1682.30278 290.836
1682.35886 291.45
1682.41494 291.965
1682.47102 292.225
1682.5271 292.543
1682.58319 293.519
1682.63927 294.15
1682.69536 294.691
1682.75145 295.097
1682.80755 295.699
1682.86364 296.292
1682.91974 296.833
1682.97583 297.361
1683.03193 297.289
1683.08804 298.048
1683.14414 298.993
1683.20025 299.539
1683.25635 300.007
1683.31246 299.472
1683.36857 300.971
1683.42469 301.694
1683.4808 302.22
1683.53692 302.49
1683.59304 303.281
1683.64916 303.554
1683.70528 304.093
1683.76141 304.808
1683.81753 304.925
1683.87366 305.046
1683.92979 304.95
1683.98592 281.839
1684.04206 711819
1684.09819 1636.81
1684.15433 307.622
1684.21047 307.042
1684.26661 307.85
1684.32275 310.051
1684.3789 310.811
1684.43505 311.314
1684.49119 311.687
1684.54735 312.499
1684.6035 313.058
1684.65965 313.597
1684.71581 314.111
1684.77197 314.675
1684.82813 315.177
1684.88429 3770.87
1684.94045 3762.02
1684.99662 316.461
1685.05279 316.945
1685.10895 317.755
1685.16513 317.958
1685.2213 318.573
1685.27747 318.512
1685.33365 319.539
1685.38983 319.622
1685.44601 320.191
1685.50219 321.659
1685.55838 322.23
1685.61456 322.723
1685.67075 323.005
1685.72694 323.473
1685.78313 323.882
1685.83933 324.881
1685.89552 324.879
1685.95172 325.556
1686.00792 326.555
1686.06412 327.1
1686.12032 327.629
1686.17653 327.928
1686.23273 328.652
1686.28894 329.217
1686.34515 328.779
1686.40137 330.154
1686.45758 330.407
1686.5138 331.37
1686.57002 331.598
1686.62624 331.915
1686.68246 332.45
1686.73868 333.445
1686.79491 334.13
1686.85113 334.489
1686.90736 335.107
1686.96359 335.662
1687.01983 335.698
1687.07606 331.936
1687.1323 336.045
1687.18854 337.303
1687.24478 333.988
1687.30102 301.397
1687.35726 317.101
1687.41351 338.767
1687.46976 339.984
1687.52601 340.192
1687.58226 341.621
1687.63851 342.211
1687.69477 342.587
1687.75103 342.075
1687.80729 343.319
1687.86355 343.598
1687.91981 344.704
1687.97608 344.407
1688.03234 345.918
1688.08861 346.202
1688.14488 346.24
1688.20115 347.367
1688.25743 348.08
1688.3137 348.466
1688.36998 349.088
1688.42626 349.846
1688.48254 350.4
1688.53883 350.946
1688.59511 351.461
1688.6514 352.005
1688.70769 352.557
1688.76398 353.065
1688.82028 353.143
1688.87657 351.894
1688.93287 1601.58
1688.98917 353.353
1689.04547 355.523
1689.10177 1606.51
1689.15807 356.237
1689.21438 356.842
1689.27069 357.247
1689.327 357.89
1689.38331 358.865
1689.43962 357.168
1689.49594 357.748
1689.55226 361.064
1689.60858 612.368
1689.6649 361.257
1689.72122 362.172
1689.77754 362.571
1689.83387 361.456
1689.8902 362.321
1689.94653 364.299
1690.00286 365.015
1690.0592 365.571
1690.11553 366.114
1690.17187 366.649
1690.22821 367.175
1690.28455 367.686
1690.3409 1.41784e+06
1690.39724 1.41725e+06
1690.45359 371.597
1690.50994 362.23
1690.56629 344.35
1690.62264 345.468
1690.679 344.932
1690.73536 2406.09
1690.79172 371.628
1690.84808 372.545
1690.90444 372.834
1690.9608 363.157
1691.01717 2409.81
1691.07354 374.958
1691.12991 375.732
1691.18628 376.292
1691.24265 376.056
1691.29903 376.598
1691.35541 376.092
1691.41179 376.7
1691.46817 377.476
1691.52455 368.777
1691.58094 372.588
1691.63732 379.758
1691.69371 380.519
1691.7501 381.665
1691.80649 382.292
1691.86289 382.783
1691.91929 382.321
1691.97568 380.669
1692.03208 380.877
1692.08849 384.86
1692.14489 385.289
1692.2013 385.819
1692.2577 385.611
1692.31411 382.47
1692.37052 382.045
1692.42694 383.492
1692.48335 387.919
1692.53977 389.045
1692.59619 389.552
1692.65261 387.927
1692.70903 390.926
1692.76546 391.579
1692.82188 391.783
1692.87831 392.652
1692.93474 393.254
1692.99117 393.8
1693.04761 394.341
1693.10404 394.872
1693.16048 395.349
1693.21692 394.184
1693.27336 395.358
1693.32981 397.013
1693.38625 397.59
1693.4427 398.136
1693.49915 398.655
1693.5556 398.368
1693.61205 398.959
1693.66851 400.244
1693.72496 400.656
1693.78142 401.284
1693.83788 401.149
1693.89434 400.347
1693.95081 381.085
1694.00727 389.614
1694.06374 392.445
1694.12021 398.944
1694.17668 399.815
1694.23316 405.018
1694.28963 405.812
1694.34611 406.68
1694.40259 406.759
1694.45907 406.301
1694.51555 407.442
1694.57204 406.721
1694.62852 407.686
1694.68501 408.514
1694.7415 409.548
1694.79799 405.738
1694.85449 408.711
1694.91098 410.301
1694.96748 411.758
1695.02398 412.839
1695.08048 411.356
1695.13699 413.246
1695.19349 414.927
1695.25 415.521
1695.30651 416.067
1695.36302 416.568
1695.41953 416.4
1695.47605 521484
1695.53257 555970
1695.58908 418.796
1695.64561 419.35
1695.70213 419.887
1695.75865 420.389
1695.81518 420.432
1695.87171 421.484
1695.92824 453.569
1695.98477 429.557
1696.0413 422.945
1696.09784 423.688
1696.15438 424.238
1696.21091 424.781
1696.26746 425.316
1696.324 425.837
1696.38054 426.351
1696.43709 426.599
1696.49364 425.443
1696.55019 426.728
1696.60674 509.078
1696.6633 426.154
1696.71985 492.55
1696.77641 414.352
1696.83297 418.8
1696.88953 429.207
1696.9461 431.167
1697.00266 431.689
1697.05923 432.133
1697.1158 424.534
1697.17237 419.55
1697.22895 421.656
1697.28552 394.046
1697.3421 417.117
1697.39868 421.991
1697.45526 429.473
1697.51184 431.066
1697.56843 437.431
1697.62501 438.245
1697.6816 438.601
1697.73819 439.221
1697.79478 439.997
1697.85138 440.445
1697.90797 440.199
1697.96457 441.358
1698.02117 441.812
1698.07777 437.837
1698.13438 442.726
1698.19098 443.349
1698.24759 442.195
1698.3042 443.11
1698.36081 444.536
1698.41742 445.895
1698.47404 446.49
1698.53065 446.069
1698.58727 446.588
1698.64389 447.146
1698.70052 448.573
1698.75714 448.864
1698.81377 449.15
1698.87039 448.667
1698.92702 449.616
1698.98366 450.798
1699.04029 451.703
1699.09693 452.086
1699.15356 453.006
1699.2102 452.471
1699.26684 453.657
1699.32349 454.618
1699.38013 454.697
1699.43678 455.293
1699.49343 454.964
1699.55008 452.937
1699.60673 440.512
1699.66339 452.989
1699.72004 456.476
1699.7767 456.986
1699.83336 456.168
1699.89002 455.847
1699.94669 456.671
1700.00335 450.347
1700.06002 459.768
1700.11669 460.454
1700.17336 462.385
1700.23003 462.454
1700.28671 461.14
1700.34339 461.912
1700.40007 463.861
1700.45675 463.456
1700.51343 465.35
1700.57011 465.947
1700.6268 466.436
1700.68349 467.019
1700.74018 461.959
1700.79687 465.275
1700.85357 1.50829e+06
1700.91026 1.48053e+06
1700.96696 440.3
1701.02366 465.391
1701.08036 463.225
1701.13707 468.17
1701.19377 470.051
1701.25048 470.927
1701.30719 473.118
1701.3639 474.283
1701.42061 474.871
1701.47733 475.376
1701.53404 474.736
1701.59076 475.789
1701.64748 475.889
1701.70421 473.955
1701.76093 476.161
1701.81766 475.112
1701.87439 478.036
1701.93112 478.624
1701.98785 480.068
1702.04458 476.388
1702.10132 479.1
1702.15805 481.574
1702.21479 481.614
1702.27154 481.644
1702.32828 482.258
1702.38502 479.994
1702.44177 484.285
1702.49852 484.763
1702.55527 479.862
1702.61202 482.13
1702.66878 478.329
1702.72553 478.233
1702.78229 475.787
1702.83905 480.839
1702.89582 486.045
1702.95258 487.818
1703.00935 489.032
1703.06611 491.501
1703.12288 491.635
1703.17966 489.755
1703.23643 487.062
1703.2932 490.863
1703.34998 490.497
1703.40676 491.964
1703.46354 489.307
1703.52033 475.129
1703.57711 487.301
1703.6339 493.292
1703.69069 494.731
1703.74748 504.4
1703.80427 492.659
1703.86106 503.235
1703.91786 498.586
1703.97466 499.342
1704.03146 498.767
1704.08826 494.768
1704.14506 496.504
1704.20187 494.432
1704.25868 497.191
1704.31549 495.285
1704.3723 495.81
1704.42911 494.627
1704.48593 492.447
1704.54274 492.065
1704.59956 495.498
1704.65638 495.629
1704.71321 493.91
1704.77003 494.192
1704.82686 495.556
1704.88369 495.041
1704.94052 494.274
1704.99735 493.719
1705.05418 490.566
1705.11102 490.188
1705.16786 489.921
1705.2247 488.969
1705.28154 479.454
1705.33838 482.929
1705.39523 486.532
1705.45208 654.712
1705.50893 491.2
1705.56578 486.535
1705.62263 483.665
1705.67949 659.333
1705.73634 490.944
1705.7932 488.771
1705.85006 489.883
1705.90692 490.04
1705.96379 489.419
1706.02066 489.475
1706.07752 486.237
1706.13439 471.038
1706.19127 483.912
1706.24814 483.123
1706.30502 482.579
1706.36189 481.252
1706.41877 485.142
1706.47565 484.308
1706.53254 485.761
1706.58942 486.445
1706.64631 479.921
1706.7032 476.839
1706.76009 473.572
1706.81698 473.647
1706.87388 469.345
1706.93078 477.405
1706.98767 484.807
1707.04457 485.046
1707.10148 757.484
1707.15838 478.47
1707.21529 480.821
1707.2722 483.531
1707.32911 479.829
1707.38602 582.519
1707.44293 645.493
1707.49985 481.059
1707.55677 472.939
1707.61368 457.14
1707.67061 475.683
1707.72753 478.818
1707.78445 475.985
1707.84138 840310
1707.89831 475.816
1707.95524 474.406
1708.01217 477.78
1708.06911 473.103
1708.12605 466.454
1708.18298 468.966
1708.23992 477.217
1708.29687 478.609
1708.35381 478.5
1708.41076 477.157
1708.4677 474.149
1708.52465 472.829
1708.58161 431.271
1708.63856 428.019
1708.69552 461.704
1708.75247 461.669
1708.80943 448.278
1708.86639 441.977
1708.92336 466.558
1708.98032 474.805
1709.03729 475.304
1709.09426 475.268
1709.15123 475.047
1709.2082 474.007
1709.26518 467.394
1709.32215 472.815
1709.37913 473.792
1709.43611 469.435
1709.49309 469.297
1709.55008 466.108
1709.60706 467.102
1709.66405 472.596
1709.72104 472.548
1709.77803 472.324
1709.83503 472.05
1709.89202 471.674
1709.94902 468.841
1710.00602 466.92
1710.06302 469.8
1710.12002 466.74
1710.17703 469.069
1710.23403 470.085
1710.29104 469.817
1710.34805 469.411
1710.40507 468.027
1710.46208 452.109
1710.5191 462.671
1710.57611 464.999
1710.63314 452.186
1710.69016 455.186
1710.74718 466.042
1710.80421 466.381
1710.86123 466.297
1710.91826 465.524
1710.9753 466.388
1711.03233 466.162
1711.08936 464.752
1711.1464 461.625
1711.20344 462.995
1711.26048 464.965
1711.31753 464.614
1711.37457 463.573
1711.43162 464.035
1711.48867 461.974
1711.54572 462.68
1711.60277 462.612
1711.65982 462.087
1711.71688 462.953
1711.77394 462.897
1711.831 462.637
1711.88806 462.354
1711.94512 461.809
1712.00219 461.078
1712.05926 461.372
1712.11633 458.737
1712.1734 454.057
1712.23047 454.537
1712.28755 755954
1712.34462 285895
1712.4017 1.04169e+06
1712.45878 459.136
1712.51587 455.301
1712.57295 455.28
1712.63004 458.625
1712.68713 458.479
1712.74422 457.88
1712.80131 455.422
1712.8584 457.233
1712.9155 457.415
1712.9726 456.975
1713.0297 455.679
1713.0868 455.967
1713.1439 453.32
1713.20101 451.071
1713.25812 453.143
1713.31523 453.938
1713.37234 453.723
1713.42945 452.125
1713.48657 452.599
1713.54368 453.324
1713.6008 453.998
1713.65792 451.714
1713.71505 448.061
1713.77217 450.53
1713.8293 451.464
1713.88643 445.647
1713.94356 441.541
1714.00069 445.354
1714.05782 447.75
1714.11496 450.254
1714.1721 449.863
1714.22924 446.232
1714.28638 400.22
1714.34353 402.925
1714.40067 445.346
1714.45782 448.319
1714.51497 448.234
1714.57212 442.292
1714.62927 420.785
1714.68643 444.528
1714.74359 447.856
1714.80074 448.187
1714.85791 448.044
1714.91507 447.87
1714.97223 447.517
1715.0294 446.63
1715.08657 446.986
1715.14374 446.835
1715.20091 446.415
1715.25809 443.733
1715.31526 430.017
1715.37244 445.079
1715.42962 445.453
1715.4868 445.256
1715.54399 445.016
1715.60117 444.759
1715.65836 444.477
1715.71555 444.181
1715.77274 443.866
1715.82993 443.516
1715.88713 443.096
1715.94433 442.499
1716.00153 441.275
1716.05873 435.03
1716.11593 381.955
1716.17313 424.475
1716.23034 439.566
1716.28755 440.424
1716.34476 440.261
1716.40197 440.705
1716.45919 440.511
1716.5164 438.839
1716.57362 439.131
1716.63084 439.705
1716.68806 439.581
1716.74529 439.324
1716.80251 438.956
1716.85974 438.479
1716.91697 436.921
1716.9742 434.128
1717.03143 491.119
1717.08867 437.053
1717.14591 437.367
1717.20315 437.151
1717.26039 436.878
1717.31763 455.049
1717.37488 435.471
1717.43212 454.904
1717.48937 676.012
1717.54662 670.537
1717.60387 434.345
1717.66113 436.731
1717.71838 436.493
1717.77564 434.471
1717.8329 434.009
1717.89017 433.253
1717.94743 433.289
1718.0047 579.296
1718.06196 580.016
1718.11923 432.692
1718.1765 431.289
1718.23378 431.029
1718.29105 429.322
1718.34833 431.427
1718.40561 431.051
1718.46289 429.819
1718.52017 430.859
1718.57746 430.609
1718.63475 429.57
1718.69203 429.971
1718.74933 429.751
1718.80662 429.347
1718.86391 1926.24
1718.92121 1962.17
1718.97851 428.671
1719.03581 428.458
1719.09311 427.789
1719.15041 427.641
1719.20772 427.023
1719.26503 427.103
1719.32234 427.131
1719.37965 426.646
1719.43696 426.387
1719.49428 425.466
1719.5516 425.697
1719.60891 1344.91
1719.66624 1342.5
1719.72356 424.179
1719.78088 424.684
1719.83821 424.621
1719.89554 424.339
1719.95287 423.874
1720.0102 419.528
1720.06754 417.271
1720.12487 422.807
1720.18221 422.938
1720.23955 422.731
1720.2969 422.434
1720.35424 420.432
1720.41159 420.007
1720.46893 420.387
1720.52628 415.165
1720.58364 420.289
1720.64099 416.223
1720.69835 417.496
1720.7557 418.193
1720.81306 419.769
1720.87042 418.42
1720.92779 417.367
1720.98515 225128
1721.04252 249812
1721.09989 416.225
1721.15726 8243.38
1721.21463 6828.33
1721.27201 364.925
1721.32938 409.149
1721.38676 408.454
1721.44414 359.956
1721.50153 387.552
1721.55891 413.018
1721.6163 415.159
1721.67368 415.417
1721.73107 414.528
1721.78847 413.89
1721.84586 413.828
1721.90326 414.593
1721.96065 414.506
1722.01805 414.025
1722.07545 408.838
1722.13286 412.666
1722.19026 4982.3
1722.24767 4911.69
1722.30508 403.002
1722.36249 408.099
1722.4199 412.189
1722.47732 412.038
1722.53474 411.741
1722.59215 411.041
1722.64958 400.563
1722.707 406.863
1722.76442 408.9
1722.82185 405.631
1722.87928 405.613
1722.93671 407.902
1722.99414 427.177
1723.05157 408.423
1723.10901 406.895
1723.16645 406.594
1723.22389 407.657
1723.28133 425.934
1723.33877 402.437
1723.39622 401.846
1723.45367 404.415
1723.51112 388.269
1723.56857 341.403
1723.62602 392.623
1723.68348 403.456
1723.74093 402.44
1723.79839 401.466
1723.85585 401.867
1723.91332 400.678
1723.97078 404.637
1724.02825 404.52
1724.08572 404.066
1724.14319 400.371
1724.20066 400.514
1724.25813 32266.5
1724.31561 28180.6
1724.37309 392.575
1724.43057 426.351
1724.48805 396.002
1724.54553 371.13
1724.60302 385.092
1724.66051 399.681
1724.718 398.644
1724.77549 513705
1724.83298 419.123
1724.89048 377.818
1724.94797 508975
1725.00547 393.693
1725.06297 398.286
1725.12048 398.873
1725.17798 398.443
1725.23549 398.357
1725.293 398.17
1725.35051 396.611
1725.40802 396.861
1725.46554 390.204
1725.52305 397.203
1725.58057 397.315
1725.63809 395.773
1725.69561 394.694
1725.75314 18951.4
1725.81066 17414.5
1725.86819 393.067
1725.92572 394.202
1725.98325 392.592
1726.04079 387.691
1726.09832 391.418
1726.15586 386.316
1726.2134 368.797
1726.27094 386.306
1726.32848 392.631
1726.38603 390.973
1726.44358 391.94
1726.50113 392.397
1726.55868 392.079
1726.61623 391.646
1726.67378 389.533
1726.73134 391.613
1726.7889 391.533
1726.84646 391.098
1726.90402 390.87
1726.96159 386.251
1727.01915 376.999
1727.07672 385.961
1727.13429 388.332
1727.19186 387.567
1727.24944 386.814
1727.30701 387.242
1727.36459 379.404
1727.42217 386.471
1727.47975 388.28
1727.53734 388.062
1727.59492 385.577
1727.65251 383.696
1727.7101 386.009
1727.76769 386.951
1727.82528 386.342
1727.88288 383.667
1727.94048 385.586
1727.99808 383.255
1728.05568 383.357
1728.11328 385.044
1728.17088 382.373
1728.22849 37405.5
1728.2861 122263
1728.34371 56106.6
1728.40132 379.402
1728.45894 379.075
1728.51655 365.457
1728.57417 371.243
1728.63179 381.641
1728.68941 382.069
1728.74704 381.643
1728.80466 377.877
1728.86229 368.107
1728.91992 355.844
1728.97755 377.299
1729.03519 380.16
1729.09282 380.387
1729.15046 379.794
1729.2081 376.074
1729.26574 377.068
1729.32338 378.509
1729.38103 378.538
1729.43867 378.321
1729.49632 377.916
1729.55397 377.841
1729.61163 375.665
1729.66928 377.608
1729.72694 377.747
1729.7846 376.896
1729.84226 377.257
1729.89992 376.991
1729.95758 376.251
1730.01525 375.485
1730.07292 375.265
1730.13059 375.424
1730.18826 374.745
1730.24593 372.766
1730.30361 54015.6
1730.36129 54028.4
1730.41897 371.358
1730.47665 371.798
1730.53433 372.066
1730.59202 370.777
1730.6497 367.279
1730.70739 372.07
1730.76509 370.37
1730.82278 371.903
1730.88047 363.144
1730.93817 365.845
1730.99587 369.018
1731.05357 370.331
1731.11127 370.981
1731.16898 369.226
1731.22668 370.303
1731.28439 370.205
1731.3421 369.699
1731.39982 369.789
1731.45753 368.968
1731.51525 367.938
1731.57296 368.053
1731.63068 368.332
1731.68841 365.149
1731.74613 366.456
1731.80386 365.97
1731.86158 364.572
1731.91931 360.412
1731.97704 337.743
1732.03478 321.294
1732.09251 356.929
1732.15025 361.602
1732.20799 361.98
1732.26573 360.901
1732.32347 350.466
1732.38122 306.89
1732.43897 339.448
1732.49672 358.957
1732.55447 362.488
1732.61222 363.162
1732.66997 363.263
1732.72773 363.214
1732.78549 363.026
1732.84325 361.714
1732.90101 361.735
1732.95878 362.13
1733.01654 361.766
1733.07431 267335
1733.13208 268324
1733.18985 361.299
1733.24763 360.97
1733.3054 359.343
1733.36318 360.451
1733.42096 359.78
1733.47874 359.25
1733.53653 359.76
1733.59431 359.513
1733.6521 359.21
1733.70989 358.211
1733.76768 357.458
1733.82547 356.527
1733.88327 356.563
1733.94106 357.588
1733.99886 357.193
1734.05666 356.749
1734.11447 356.664
1734.17227 356.706
1734.23008 356.23
1734.28789 351.294
1734.3457 354.628
1734.40351 355.031
1734.46133 355.025
1734.51914 354.544
1734.57696 354.25
1734.63478 354.39
1734.6926 353.78
1734.75043 349.301
1734.80825 352.041
1734.86608 353.158
1734.92391 352.64
1734.98174 351.644
1735.03958 346.303
1735.09741 99824.4
1735.15525 99778.5
1735.21309 351.439
1735.27093 351.192
1735.32877 350.878
1735.38662 350.016
1735.44447 349.981
1735.50231 349.818
1735.56017 347.972
1735.61802 329.184
1735.67587 333.081
1735.73373 346.54
1735.79159 348.036
1735.84945 346.547
1735.90731 347.978
1735.96518 242356
1736.02304 343.873
1736.08091 329.069
1736.13878 327.957
1736.19665 344.338
1736.25453 344.669
1736.3124 344.884
1736.37028 345.367
1736.42816 345.42
1736.48604 345.409
1736.54393 344.652
1736.60181 343.684
1736.6597 332.3
1736.71759 326.821
1736.77548 340.288
1736.83338 329.705
1736.89127 330.42
1736.94917 341.472
1737.00707 341.923
1737.06497 342.5
1737.12287 342.652
1737.18078 342.459
1737.23868 342.225
1737.29659 341.972
1737.3545 341.706
1737.41242 341.359
1737.47033 340.705
1737.52825 340.684
1737.58617 340.024
1737.64409 340.154
1737.70201 339.953
1737.75993 339.735
1737.81786 339.382
1737.87579 337.451
1737.93372 333.662
1737.99165 338.288
1738.04959 337.264
1738.10752 336.149
1738.16546 337.575
1738.2234 336.368
1738.28134 197713
1738.33928 333.103
1738.39723 336.41
1738.45518 196818
1738.51313 332.817
1738.57108 335.798
1738.62903 494889
1738.68699 494857
1738.74494 335.094
1738.8029 334.28
1738.86086 332.563
1738.91883 333.081
1738.97679 333.755
1739.03476 333.734
1739.09273 333.438
1739.1507 333.175
1739.20867 332.929
1739.26665 332.514
1739.32462 331.794
1739.3826 331.672
1739.44058 330.208
1739.49856 329.44
1739.55655 331.086
1739.61453 330.763
1739.67252 329.683
1739.73051 328.715
1739.7885 316.866
1739.8465 312.175
1739.90449 326.798
1739.96249 328.718
1740.02049 327.789
1740.07849 324.49
1740.1365 328.097
1740.1945 327.718
1740.25251 326.756
1740.31052 324.464
1740.36853 326.949
1740.42654 326.913
1740.48456 325.401
1740.54258 326.252
1740.60059 326.006
1740.65862 325.464
1740.71664 325.38
1740.77466 325.35
1740.83269 324.849
1740.89072 324.472
1740.94875 323.584
1741.00678 323.933
1741.06482 323.616
1741.12285 322.788
1741.18089 320.642
1741.23893 312.22
1741.29697 309.063
1741.35502 317.25
1741.41306 320.903
1741.47111 321.459
1741.52916 321.357
1741.58721 322.071
1741.64527 312.22
1741.70332 317.861
1741.76138 319.697
1741.81944 316.486
1741.8775 319.892
1741.93557 319.496
1741.99363 317.407
1742.0517 318.059
1742.10977 318.317
1742.16784 318.347
1742.22591 316.44
1742.28399 316.99
1742.34207 318.059
1742.40015 317.838
1742.45823 317.576
1742.51631 317.304
1742.57439 317.028
1742.63248 316.745
1742.69057 401310
1742.74866 314.918
1742.80675 315.736
1742.86485 317.302
1742.92294 314.62
1742.98104 314.562
1743.03914 314.046
1743.09724 314.079
1743.15535 314.25
1743.21345 314.002
1743.27156 315.405
1743.32967 313.254
1743.38778 313.139
1743.4459 312.892
1743.50401 312.467
1743.56213 310.891
1743.62025 312.008
1743.67837 311.806
1743.7365 311.54
1743.79462 311.266
1743.85275 310.974
1743.91088 310.367
1743.96901 310.393
1744.02714 310.141
1744.08528 309.841
1744.14342 309.228
1744.20156 308.538
1744.2597 308.781
1744.31784 308.142
1744.37598 305.78
1744.43413 304.77
1744.49228 304.876
1744.55043 306.52
1744.60858 305.977
1744.66674 306.796
1744.72489 306.561
1744.78305 306.537
1744.84121 306.048
1744.89938 305.737
1744.95754 470189
1745.01571 684354
1745.07387 304.987
1745.13204 303.577
1745.19022 304.608
1745.24839 304.387
1745.30657 304.116
1745.36474 303.807
1745.42292 302.784
1745.48111 303.21
1745.53929 303.013
1745.59748 302.733
1745.65566 302.349
1745.71385 301.081
1745.77204 301.862
1745.83024 301.627
1745.88843 300.931
1745.94663 300.318
1746.00483 299.326
1746.06303 300.099
1746.12123 299.503
1746.17944 296.726
1746.23765 298.652
1746.29585 299.016
1746.35406 298.448
1746.41228 298.598
1746.47049 298.331
1746.52871 298.002
1746.58693 297.644
1746.64515 297.437
1746.70337 315.862
1746.76159 326.366
1746.81982 297.181
1746.87805 296.182
1746.93628 295.829
1746.99451 295.241
1747.05275 296.994
1747.11098 306.313
1747.16922 294.94
1747.22746 294.327
1747.2857 293.324
1747.34395 293.995
1747.40219 293.398
1747.46044 291.664
1747.51869 290.097
1747.57694 291.886
1747.63519 291.185
1747.69345 291.334
1747.75171 290.641
1747.80997 290.651
1747.86823 290.714
1747.92649 290.401
1747.98476 290.084
1748.04302 289.753
1748.10129 289.291
1748.15956 288.998
1748.21784 288.787
1748.27611 288.469
1748.33439 288.174
1748.39267 287.857
1748.45095 287.515
1748.50923 287.206
1748.56751 286.923
1748.6258 286.678
1748.68409 286.217
1748.74238 285.609
1748.80067 285.581
1748.85897 285.218
1748.91726 283.868
1748.97556 284.217
1749.03386 283.99
1749.09216 283.216
1749.15047 282.859
1749.20877 283.058
1749.26708 283.018
1749.32539 282.693
1749.3837 281.669
1749.44202 282.129
1749.50033 281.931
1749.55865 281.65
1749.61697 281.163
1749.67529 280.83
1749.73362 280.519
1749.79194 280.232
1749.85027 279.529
1749.9086 278.897
1749.96693 277.886
1750.02526 278.169
1750.0836 32107.9
1750.14193 279.339
1750.20027 32115.8
1750.25861 277.506
1750.31696 277.27
1750.3753 277.039
1750.43365 276.766
1750.492 276.714
1750.55035 83148.7
1750.6087 329556
1750.66706 275.645
1750.72541 275.649
1750.78377 275.168
1750.84213 274.494
1750.90049 274.223
1750.95886 273.702
1751.01722 273.674
1751.07559 273.379
1751.13396 273.031
1751.19233 272.602
1751.25071 272.64
1751.30908 272.563
1751.36746 272.631
1751.42584 273.597
1751.48422 283.81
1751.54261 343.6
1751.60099 285.373
1751.65938 272.575
1751.71777 270.865
1751.77616 270.055
1751.83456 269.518
1751.89295 268.87
1751.95135 268.427
1752.00975 268.315
1752.06815 267.958
1752.12655 267.428
1752.18496 267.288
1752.24336 267.025
1752.30177 266.678
1752.36019 266.317
1752.4186 265.979
1752.47701 265.677
1752.53543 265.484
1752.59385 265.174
1752.65227 264.667
1752.71069 264.779
1752.76912 264.278
1752.82754 58391.5
1752.88597 263.509
1752.9444 263.141
1753.00283 262.836
1753.06127 58496.8
1753.11971 261.956
1753.17814 261.796
1753.23658 261.252
1753.29503 261.153
1753.35347 260.988
1753.41192 260.596
1753.47036 260.241
1753.52881 259.712
1753.58727 259.448
1753.64572 259.242
1753.70418 258.928
1753.76263 258.604
1753.82109 257.968
1753.87956 257.329
1753.93802 257.31
1753.99648 257.41
1754.05495 257.069
1754.11342 256.11
1754.17189 256.643
1754.23037 256.183
1754.28884 255.845
1754.34732 255.222
1754.4058 255.079
1754.46428 255.083
1754.52276 254.603
1754.58125 254.18
1754.63973 253.447
1754.69822 253.29
1754.75671 253.241
1754.81521 253.104
1754.8737 253.324
1754.9322 253.648
1754.9907 254.639
1755.0492 257.922
1755.1077 283.923
1755.16621 352.628
1755.22471 274.28
1755.28322 255.499
1755.34173 252.43
1755.40024 251.108
1755.45876 250.395
1755.51727 249.503
1755.57579 249.5
1755.63431 249.166
1755.69283 248.551
1755.75136 248.225
1755.80988 248.326
1755.86841 247.71
1755.92694 247.722
1755.98547 246.881
1756.04401 246.442
1756.10254 246.118
1756.16108 245.987
1756.21962 245.618
1756.27816 245.833
1756.33671 245.401
1756.39525 244.954
1756.4538 245.28
1756.51235 244.422
1756.5709 244.205
1756.62945 244.367
1756.68801 245.395
1756.74657 251.911
1756.80513 299.32
1756.86369 271.165
1756.92225 247.222
1756.98081 245.584
1757.03938 242.535
1757.09795 241.775
1757.15652 241.493
1757.21509 241.519
1757.27367 242.141
1757.33225 244.592
1757.39082 258.991
1757.44941 335.256
1757.50799 280.964
1757.56657 245.946
1757.62516 242.38
1757.68375 240.643
1757.74234 239.357
1757.80093 238.404
1757.85952 236.955
1757.91812 236.507
1757.97672 236.096
1758.03532 235.713
1758.09392 235.509
1758.15253 235.176
1758.21113 234.414
1758.26974 234.941
1758.32835 233.941
1758.38696 233.608
1758.44558 233.362
1758.50419 233.151
1758.56281 232.688
1758.62143 231.968
1758.68005 231.324
1758.73867 231.521
1758.7973 231.363
1758.85593 231.008
1758.91456 230.403
1758.97319 230.081
1759.03182 229.922
1759.09046 229.669
1759.14909 229.245
1759.20773 228.898
1759.26638 228.687
1759.32502 228.463
1759.38366 228.074
1759.44231 227.753
1759.50096 227.434
1759.55961 227.117
1759.61826 226.801
1759.67692 226.485
1759.73558 226.153
1759.79423 225.666
1759.85289 225.545
1759.91156 225.274
1759.97022 225.154
1760.02889 226.884
1760.08756 225.184
1760.14623 224.063
1760.2049 223.035
1760.26358 222.537
1760.32225 223.061
1760.38093 222.783
1760.43961 222.343
1760.49829 222.18
1760.55698 221.981
1760.61566 221.777
1760.67435 222.27
1760.73304 221.952
1760.79173 221.589
1760.85043 221.926
1760.90912 223.801
1760.96782 234.426
1761.02652 297.27
1761.08522 261.596
1761.14393 225.897
1761.20263 221.015
1761.26134 219.436
1761.32005 218.709
1761.37876 218.266
1761.43748 217.425
1761.49619 216.925
1761.55491 216.528
1761.61363 216.223
1761.67235 215.881
1761.73107 215.567
1761.7898 215.251
1761.84853 214.934
1761.90725 214.716
1761.96599 214.306
1762.02472 213.928
1762.08345 213.41
1762.14219 213.653
1762.20093 215.761
1762.25967 215.791
1762.31841 214.22
1762.37716 216.197
1762.43591 236.506
1762.49466 278.841
1762.55341 223.821
1762.61216 214.238
1762.67091 212.28
1762.72967 211.52
1762.78843 210.981
1762.84719 212.61
1762.90595 213.143
1762.96472 215.027
1763.02348 247.337
1763.08225 280.482
1763.14102 220.34
1763.19979 211.041
1763.25857 210.621
1763.31734 213.874
1763.37612 207.937
1763.4349 207.015
1763.49369 207.247
1763.55247 207.653
1763.61126 206.168
1763.67004 205.433
1763.72883 204.843
1763.78763 204.406
1763.84642 204.063
1763.90521 203.541
1763.96401 203.181
1764.02281 203.392
1764.08161 202.448
1764.14042 201.982
1764.19922 202.151
1764.25803 201.599
1764.31684 201.538
1764.37565 201.292
1764.43447 201.111
1764.49328 203.68
1764.5521 202.929
1764.61092 200.799
1764.66974 199.908
1764.72856 199.633
1764.78739 199.438
1764.84622 198.959
1764.90504 198.904
1764.96388 310267
1765.02271 533.604
1765.08154 198.398
1765.14038 197.934
1765.19922 197.956
1765.25806 198.193
1765.3169 2.91041e+06
1765.37575 199.152
1765.4346 204.282
1765.49344 202.491
1765.55229 205.438
1765.61115 227.075
1765.67 323.73
1765.72886 253.469
1765.78772 237.196
1765.84658 315.308
1765.90544 501.683
1765.96431 502.05
1766.02317 4195.28
1766.08204 233.428
1766.14091 4455.6
1766.19978 3285.66
1766.25866 199.989
1766.31753 197.393
1766.37641 198.653
1766.43529 197.036
1766.49417 95453
1766.55306 191.363
1766.61194 190.585
1766.67083 189.997
1766.72972 189.557
1766.78861 189.153
1766.84751 190.277
1766.9064 198.414
1766.9653 192.226
1767.0242 187.995
1767.0831 187.601
1767.14201 857.464
1767.20091 1.00778e+06
1767.25982 188.44
1767.31873 185.354
1767.37764 184.997
1767.43656 184.663
1767.49547 184.372
1767.55439 184.041
1767.61331 183.717
1767.67223 183.41
1767.73115 182.433
1767.79008 184.515
1767.84901 195.771
1767.90793 183.922
1767.96687 181.825
1768.0258 183.491
1768.08473 181.176
1768.14367 182.365
1768.20261 190.407
1768.26155 217.179
1768.32049 187.229
1768.37944 181.498
1768.43839 13739.6
1768.49734 181.247
1768.55629 178.471
1768.61524 178.334
1768.67419 13695.9
1768.73315 177.887
1768.79211 181.102
1768.85107 178.872
1768.91003 176.928
1768.969 38792.1
1769.02796 177.726
1769.08693 186.32
1769.1459 184.174
1769.20488 177.715
1769.26385 177.072
1769.32283 175.373
1769.38181 175.663
1769.44079 183.331
1769.49977 202.852
1769.55875 178.068
1769.61774 176.09
1769.67673 179.659
1769.73572 217.839
1769.79471 225.843
1769.8537 362772
1769.9127 181.087
1769.9717 177.471
1770.0307 182.106
1770.0897 173.58
1770.1487 170.901
1770.20771 171.056
1770.26672 172.375
1770.32573 170.077
1770.38474 169.624
1770.44375 172.766
1770.50277 171.876
1770.56179 172.658
1770.62081 182.173
1770.67983 247.459
1770.73885 323.136
1770.79788 198.774
1770.8569 174.825
1770.91593 169.755
1770.97497 167.767
1771.034 167.587
1771.09303 182.891
1771.15207 173.725
1771.21111 165.3
1771.27015 165.3
1771.3292 172.031
1771.38824 164.912
1771.44729 163.131
1771.50634 162.674
1771.56539 162.213
1771.62444 161.935
1771.6835 161.618
1771.74255 161.364
1771.80161 160.79
1771.86067 160.969
1771.91974 163.279
1771.9788 161.156
1772.03787 158.361
1772.09694 158.838
1772.15601 158.399
1772.21508 158.706
1772.27416 158.502
1772.33323 157.791
1772.39231 14412.5
1772.45139 162.641
1772.51048 174.979
1772.56956 176.384
1772.62865 159.082
1772.68774 157.131
1772.74683 158.318
1772.80592 169.751
1772.86501 158.865
1772.92411 155.654
1772.98321 155.365
1773.04231 168.41
1773.10141 170.442
1773.16052 154.189
1773.21962 153.662
1773.27873 153.385
1773.33784 115661
1773.39695 167.185
1773.45607 152.625
1773.51518 152.593
1773.5743 152.666
1773.63342 153.474
1773.69254 155.928
1773.75167 160.416
1773.81079 172.047
1773.86992 169.249
1773.92905 188.034
1773.98818 327.167
1774.04732 300.457
1774.10645 177.43
1774.16559 159.578
1774.22473 156.082
1774.28387 158.421
1774.34302 186.677
1774.40216 289.189
1774.46131 187.746
1774.52046 155.437
1774.57961 150.685
1774.63877 149.102
1774.69792 153.193
1774.75708 163.559
1774.81624 151.447
1774.8754 148.992
1774.93456 148.296
1774.99373 189.003
1775.0529 166.223
1775.11207 145.991
1775.17124 144.764
1775.23041 144.064
1775.28959 144.718
1775.34876 145.358
1775.40794 145.689
1775.46712 147.524
1775.52631 162.673
1775.58549 151.318
1775.64468 147.812
1775.70387 153.424
1775.76306 202.415
1775.82225 179.807
1775.88145 154.209
1775.94064 174.249
1775.99984 249.375
1776.05904 169.248
1776.11825 171.227
1776.17745 243.288
1776.23666 464.858
1776.29587 266.177
1776.35508 171.681
1776.41429 155.792
1776.47351 152.968
1776.53272 180.094
1776.59194 183.069
1776.65116 150.554
1776.71039 3441.64
1776.76961 1289.74
1776.82884 148.68
1776.88807 155.138
1776.9473 146.844
1777.00653 148.483
1777.06576 186.379
1777.125 159.5
1777.18424 144.931
1777.24348 143.651
1777.30272 143.219
1777.36197 143.089
1777.42121 143.143
1777.48046 143.531
1777.53971 146.651
1777.59896 144.688
1777.65822 4241.88
1777.71747 25922.8
1777.77673 144.3
1777.83599 155.647
1777.89525 207.799
1777.95452 148.036
1778.01378 144.426
1778.07305 144.524
1778.13232 145.054
1778.19159 146.387
1778.25087 149.927
1778.31014 165.978
1778.36942 263.821
1778.4287 205.983
1778.48798 192.479
1778.54727 160.074
1778.60655 159.632
1778.66584 170.718
1778.72513 211.233
1778.78442 414.048
1778.84372 570.895
1778.90301 278.516
1778.96231 186.542
1779.02161 169.515
1779.08091 241.403
1779.14022 234.846
1779.19952 201.06
1779.25883 187.473
1779.31814 151.564
1779.37745 148.896
1779.43676 145.613
1779.49608 144.177
1779.5554 144.095
1779.61472 148.66
1779.67404 145.595
1779.73336 145.872
1779.79269 169.124
1779.85201 162.485
1779.91134 145.483
1779.97068 142.953
1780.03001 142.376
1780.08934 142.213
1780.14868 142.192
1780.20802 142.515
1780.26736 144.573
1780.32671 148.209
1780.38605 148.216
1780.4454 146.726
1780.50475 143.352
1780.5641 143.861
1780.62345 143.736
1780.68281 144.355
1780.74216 143.579
1780.80152 145.892
1780.86088 149.548
1780.92025 169.457
1780.97961 170.386
1781.03898 166.24
1781.09835 11851
1781.15772 305450
1781.21709 479.256
1781.27647 632.768
1781.33584 331.366
1781.39522 208.724
1781.4546 238.389
1781.51399 165.578
1781.57337 155.288
1781.63276 157.831
1781.69215 254.138
1781.75154 234.532
1781.81093 208.006
1781.87032 160.266
1781.92972 145.163
1781.98912 743.639
1782.04852 691.925
1782.10792 141.959
1782.16733 141.617
1782.22673 141.734
1782.28614 141.312
1782.34555 141.245
1782.40497 142.043
1782.46438 142.522
1782.5238 150.262
1782.58321 181.364
1782.64264 148.693
1782.70206 142.248
1782.76148 140.901
1782.82091 140.5
1782.88034 140.363
1782.93977 3384.87
1782.9992 4898.93
1783.05863 140.628
1783.11807 141.689
1783.17751 1654.39
1783.23695 150.777
1783.29639 172.452
1783.35583 178.21
1783.41528 145.759
1783.47473 145.088
1783.53418 150.041
1783.59363 142.329
1783.65309 141.761
1783.71254 145.505
1783.772 150.979
1783.83146 168.744
1783.89092 150.133
1783.95039 144.393
1784.00985 145.126
1784.06932 148.681
1784.12879 160.979
1784.18826 183.407
1784.24774 318.369
1784.30721 322.301
1784.36669 170.525
1784.42617 160.985
1784.48565 164.834
1784.54514 176.099
1784.60462 203.99
1784.66411 322.836
1784.7236 567.703
1784.78309 703.821
1784.84258 715.637
1784.90208 414.622
1784.96158 256.063
1785.02108 225.993
1785.08058 1874.31
1785.14008 200.615
1785.19959 163.291
1785.2591 153.8
1785.31861 150.149
1785.37812 2588.06
1785.43763 147.64
1785.49715 147.666
1785.55666 149.037
1785.61618 154.247
1785.6757 197.934
1785.73523 427.226
1785.79475 279.857
1785.85428 190.944
1785.91381 289.862
1785.97334 587.968
1786.03288 310.378
1786.09241 181.393
1786.15195 160.795
1786.21149 153.839
1786.27103 208.284
1786.33057 188.923
1786.39012 148.209
1786.44967 153.509
1786.50921 197.946
1786.56877 163.922
1786.62832 145.558
1786.68787 144.842
1786.74743 145.367
1786.80699 147.52
1786.86655 152.971
1786.92612 159.073
1786.98568 179.08
1787.04525 252.612
1787.10482 581.153
1787.16439 581.795
1787.22396 255.368
1787.28354 179.697
1787.34311 159.604
1787.40269 153.385
1787.46227 199.403
1787.52186 216.985
1787.58144 172.701
1787.64103 168.648
1787.70062 142.919
1787.76021 142.065
1787.8198 150.301
1787.8794 145.021
1787.93899 139.908
1787.99859 1.0568e+06
1788.05819 1.0677e+06
1788.1178 138.477
1788.1774 254.827
1788.23701 265.619
1788.29662 138.36
1788.35623 139.078
1788.41584 139.334
1788.47546 138.839
1788.53507 139.558
1788.59469 141.122
1788.65431 142.923
1788.71394 150.843
1788.77356 228.377
1788.83319 506.366
1788.89282 270.719
1788.95245 155.179
1789.01208 143.699
1789.07171 725.452
1789.13135 138.987
1789.19099 723.689
1789.25063 137.801
1789.31027 137.65
1789.36992 137.623
1789.42956 137.389
1789.48921 137.06
1789.54886 136.953
1789.60852 136.953
1789.66817 137.009
1789.72783 137.211
1789.78749 136.967
1789.84715 137.205
1789.90681 137.651
1789.96647 137.401
