# Obtained using Skycalc tool from ESO webpage
# Not including telescope emissivity
Wave[nm] Radiance[photons/s/m**2/micron/arsec**2]
1170 268.016
1170.46401 650.492
1170.9282 3076.24
1171.39258 7623.05
1171.85714 7618.43
1172.32189 3073.46
1172.78682 662.07
1173.25193 356.236
1173.71723 337.359
1174.18272 335.774
1174.64838 344.475
1175.11424 345.332
1175.58028 346.328
1176.0465 465.709
1176.51291 1312.28
1176.9795 2274.18
1177.44628 1303.2
1177.91324 686.893
1178.38039 2273.02
1178.84772 4215.56
1179.31524 2269.77
1179.78294 564.033
1180.25083 330.578
1180.71891 322.374
1181.18717 313.215
1181.65561 300.183
1182.12424 298.89
1182.59306 308.193
1183.06207 313.736
1183.53126 313.812
1184.00063 346.883
1184.47019 622.217
1184.93994 945.854
1185.40988 628.456
1185.88 418.567
1186.3503 910.525
1186.8208 1517.19
1187.29148 901.045
1187.76235 356.552
1188.2334 279.671
1188.70464 281.101
1189.17607 282.886
1189.64768 283.551
1190.11948 281.68
1190.59147 279.56
1191.06365 277.542
1191.53601 276.119
1192.00856 274.174
1192.4813 273.38
1192.95423 280.36
1193.42734 352.23
1193.90064 440.434
1194.37413 370.408
1194.8478 421.564
1195.32167 558.669
1195.79572 486.014
1196.26996 967.474
1196.74439 2069.52
1197.219 2938.74
1197.69381 4231.67
1198.1688 6373.66
1198.64398 7982.55
1199.11935 3978.56
1199.59491 2989.28
1200.07065 9426.65
1200.54659 13895.7
1201.02271 6486.15
1201.49903 1319.79
1201.97553 3503.4
1202.45222 11764.2
1202.9291 16062.1
1203.40617 7247.65
1203.88343 1096.44
1204.36087 308.774
1204.83851 537.776
1205.31634 2570.06
1205.79435 4919.27
1206.27256 2564.06
1206.75095 501.669
1207.22954 213.652
1207.70831 203.221
1208.18727 201.672
1208.66643 200.885
1209.14577 200.135
1209.62531 200.688
1210.10503 201.042
1210.58495 265.84
1211.06505 2275.6
1211.54535 16941.6
1212.02583 34854.3
1212.50651 20967.6
1212.98738 11062
1213.46843 13520.6
1213.94968 6578.13
1214.43112 1488.02
1214.91275 2873.64
1215.39457 4830.02
1215.87659 2430.42
1216.35879 485.724
1216.84119 379.913
1217.32377 1089.44
1217.80655 1723.38
1218.28952 938.265
1218.77268 717.612
1219.25603 3682.36
1219.73958 7190.91
1220.22331 3758.42
1220.70724 853.592
1221.19136 603.852
1221.67567 432.236
1222.16017 1668.85
1222.64487 11835.6
1223.12976 23482.5
1223.61484 11842.5
1224.10011 1683.14
1224.58557 858.324
1225.07123 4846.3
1225.55708 9361.58
1226.04312 4755.43
1226.52936 755.431
1227.01579 252.093
1227.50241 1814.21
1227.98922 13230.7
1228.47623 26285.2
1228.96343 13254.7
1229.45083 1839.12
1229.93841 242.364
1230.42619 182.644
1230.91417 195.35
1231.40234 654.094
1231.8907 3972.84
1232.37925 7765.71
1232.868 3971.4
1233.35694 652.352
1233.84608 230.984
1234.33541 1356.83
1234.82493 9590.14
1235.31465 19000.6
1235.80456 9587.56
1236.29467 1351.2
1236.78497 210.661
1237.27547 173.626
1237.76616 172.947
1238.25704 172.786
1238.74812 181.735
1239.2394 460.552
1239.73087 2473.96
1240.22253 4775.12
1240.71439 2494.9
1241.20644 1101.4
1241.69869 5292.32
1242.19114 10394.6
1242.68378 5289.85
1243.17661 817.485
1243.66964 206.884
1244.16287 204.224
1244.65629 225.085
1245.14991 252.954
1245.64372 225.474
1246.13773 283.415
1246.63193 388.717
1247.12633 442.981
1247.62093 1501.68
1248.11572 2805.9
1248.61071 1564.45
1249.1059 1146.38
1249.60128 3411.56
1250.09686 5135.9
1250.59264 3371.78
1251.08861 2411.44
1251.58478 1353.92
1252.08114 1826.03
1252.5777 3244.04
1253.07446 1944.89
1253.57142 2297.17
1254.06857 4050.72
1254.56592 2328.6
1255.06347 2216.21
1255.56121 3942.13
1256.05916 2426.58
1256.5573 1232.91
1257.05563 2857.71
1257.55417 4408.82
1258.0529 2871.55
1258.55183 3970.81
1259.05096 6929.12
1259.55028 5976.38
1260.04981 7235.62
1260.54953 10149.6
1261.04945 10658.3
1261.54957 10065.8
1262.04989 11492.5
1262.5504 11248.5
1263.05112 8731.63
1263.55203 6720.9
1264.05314 6676.1
1264.55445 5059.19
1265.05596 4845.52
1265.55767 6149.62
1266.05957 7960.03
1266.56168 7196.04
1267.06398 6943.99
1267.56649 10394.3
1268.06919 21635.1
1268.57209 43213.1
1269.0752 42530.8
1269.5785 32640.2
1270.082 23473
1270.5857 15558
1271.0896 11138.3
1271.5937 8666.88
1272.098 9713.87
1272.6025 11310.6
1273.1072 9196.98
1273.6121 7327.3
1274.1172 9213.49
1274.62251 14208.7
1275.12801 15446.8
1275.63371 11503.4
1276.13961 16070.3
1276.64572 18533.2
1277.15202 14275.3
1277.65853 18175
1278.16523 23014.9
1278.67214 12305.7
1279.17925 4544.42
1279.68655 8314.06
1280.19406 16253
1280.70178 17006
1281.20969 7797.15
1281.7178 3438.25
1282.22612 4294.04
1282.73463 4191.26
1283.24335 4823.61
1283.75227 2630.98
1284.2614 1722.17
1284.77072 2621.39
1285.28025 1403.97
1285.78998 443.722
1286.29991 933.699
1286.81004 1648.02
1287.32037 919.782
1287.83091 330.024
1288.34165 586.189
1288.85259 1034.71
1289.36374 2565.6
1289.87509 16102.8
1290.38664 32122.3
1290.89839 17565.5
1291.41035 8932.22
1291.92251 12013.8
1292.43487 5973.42
1292.94744 1251.91
1293.46021 952.993
1293.97318 2514.59
1294.48635 4448.62
1294.99973 2330.41
1295.51332 516.742
1296.0271 389.099
1296.54109 1057.58
1297.05529 1699.72
1297.56969 1298.21
1298.08429 3317.72
1298.5991 6260.85
1299.11411 3224.83
1299.62932 619.907
1300.14474 465.414
1300.66036 666.692
1301.17619 1669.18
1301.69222 10415.2
1302.20846 20592.8
1302.7249 10386.4
1303.24155 1458.51
1303.7584 243.847
1304.27546 709.634
1304.79272 4314.48
1305.31019 8434.43
1305.82786 4308.68
1306.34574 697.444
1306.86382 239.722
1307.38211 1641.53
1307.9006 11884.1
1308.4193 23592.3
1308.93821 11889.3
1309.45732 1647.33
1309.97663 235.753
1310.49616 200.242
1311.01588 206.827
1311.53582 620.974
1312.05596 3663.45
1312.57631 7142.26
1313.09686 3656.2
1313.61762 607.407
1314.13859 215.639
1314.65976 992.495
1315.18114 6686.91
1315.70273 13197.3
1316.22452 6692.72
1316.74652 995.044
1317.26873 207.475
1317.79115 182.842
1318.31377 177.7
1318.8366 174.82
1319.35963 182.309
1319.88288 443.306
1320.40633 2334.11
1320.92999 4495.75
1321.45385 2340.99
1321.97793 476.848
1322.50221 812.817
1323.0267 5130.53
1323.5514 10083.6
1324.07631 5136.57
1324.60142 813.053
1325.12674 217.453
1325.65227 198.727
1326.17801 200.057
1326.70396 198.764
1327.23012 196.087
1327.75648 194.517
1328.28306 189.58
1328.80984 189.772
1329.33683 255.06
1329.86403 703.531
1330.39144 1206.77
1330.91906 699.434
1331.44689 435.457
1331.97493 1730.5
1332.50318 3285.89
1333.03163 1747.13
1333.5603 390.017
1334.08917 204.614
1334.61826 209.468
1335.14756 211.934
1335.67706 206.16
1336.20678 198.934
1336.7367 203.371
1337.26684 198.274
1337.79718 203.83
1338.32774 219.712
1338.8585 243.109
1339.38948 414.525
1339.92067 608.52
1340.45207 403.371
1340.98368 332.765
1341.5155 985.512
1342.04753 1765.41
1342.57977 997.824
1343.11222 316.816
1343.64489 205.8
1344.17776 175.03
1344.71085 175.848
1345.24415 197.268
1345.77765 195.131
1346.31138 194.911
1346.84531 193.672
1347.37945 161.228
1347.91381 114.078
1348.44838 121.464
1348.98316 155.43
1349.51815 170.907
1350.05335 147.458
1350.58877 184.815
1351.1244 263.554
1351.66024 196.993
1352.1963 268.069
1352.73256 396.24
1353.26904 230.356
1353.80573 93.2353
1354.34264 45.5196
1354.87976 30.2477
1355.41709 41.7691
1355.95463 50.368
1356.49239 63.2687
1357.03036 53.2142
1357.56854 43.9053
1358.10694 42.3793
1358.64555 35.8449
1359.18438 32.6921
1359.72341 28.5671
1360.26266 29.9759
1360.80213 18.7374
1361.34181 8.33693
1361.8817 4.96674
1362.42181 11.6892
1362.96213 29.7081
1363.50267 40.143
1364.04342 30.0128
1364.58439 17.3081
1365.12556 32.4586
1365.66696 227.376
1366.20857 963.257
1366.75039 1576.74
1367.29243 813.773
1367.83468 140.141
1368.37715 52.6545
1368.91984 292.387
1369.46274 564.885
1370.00585 291.331
1370.54918 68.2988
1371.09272 81.3121
1371.63649 116.575
1372.18046 65.4082
1372.72465 33.0804
1373.26906 35.6449
1373.81369 90.2583
1374.35853 424.321
1374.90358 811.468
1375.44885 441.156
1375.99434 93.062
1376.54005 40.3111
1377.08597 43.3504
1377.63211 63.7435
1378.17846 53.1633
1378.72503 31.7357
1379.27182 42.0103
1379.81882 43.4443
1380.36604 20.746
1380.91348 42.4547
1381.46114 252.405
1382.00901 481.859
1382.5571 270.446
1383.10541 311.006
1383.65393 1784.16
1384.20268 3390.65
1384.75164 1687.28
1385.30081 248.404
1385.85021 204.826
1386.39982 1148.73
1386.94965 2237.24
1387.4997 1137.06
1388.04997 173.564
1388.60046 101.881
1389.15116 217.089
1389.70208 549.108
1390.25322 1038.59
1390.80458 1357.05
1391.35616 1847.81
1391.90796 909.041
1392.45997 136.929
1393.01221 60.4998
1393.56466 84.0159
1394.11734 83.0016
1394.67023 78.3313
1395.22334 44.3156
1395.77667 19.2627
1396.33022 26.2091
1396.88399 95.6533
1397.43798 438.954
1397.99219 2211.57
1398.54662 4146.08
1399.10127 2086.88
1399.65613 297.225
1400.21122 27.1275
1400.76653 39.319
1401.32206 830.214
1401.87781 6271.73
1402.43378 12391.1
1402.98997 6219.64
1403.54638 843.717
1404.10301 109.447
1404.65986 185.272
1405.21694 782.748
1405.77423 1518.5
1406.33175 911.969
1406.88948 394.247
1407.44744 889.563
1408.00562 5856.8
1408.56402 11598.3
1409.12264 6141.17
1409.68148 3612.97
1410.24055 6472.63
1410.79983 4617.55
1411.35934 1325.68
1411.91907 264.46
1412.47902 1509.82
1413.0392 11312.1
1413.59959 22464.3
1414.16021 11238.5
1414.72105 1475.38
1415.28212 1168.75
1415.8434 8535.86
1416.40491 16978.2
1416.96664 8597.99
1417.5286 2841.28
1418.09077 13625.7
1418.65317 27518.5
1419.2158 14703
1419.77864 2364.26
1420.34171 226.445
1420.905 118.203
1421.46852 198.834
1422.03226 673.388
1422.59622 1183.82
1423.16041 629.95
1423.72482 168.367
1424.28945 134.657
1424.85431 148.637
1425.41939 255.825
1425.9847 1139.22
1426.55023 2156.98
1427.11598 1137.94
1427.68196 249.967
1428.24816 364.258
1428.81459 2166.27
1429.38125 4254.49
1429.94812 2226.52
1430.51523 434.282
1431.08255 136.689
1431.6501 89.7749
1432.21788 110.467
1432.78588 724.224
1433.35411 4975.23
1433.92256 9864.76
1434.49124 7317.75
1435.06015 19347.8
1435.62928 37289.6
1436.19863 19776.4
1436.76821 7770.56
1437.33802 8931.48
1437.90805 4308.87
1438.47831 967.225
1439.0488 1325.21
1439.61951 2207.69
1440.19045 1815.19
1440.76161 719.313
1441.333 288.933
1441.90462 476.792
1442.47646 623.533
1443.04853 369.472
1443.62083 213.409
1444.19335 194.293
1444.76611 182.57
1445.33909 162.801
1445.91229 420.321
1446.48572 2224
1447.05939 4262.57
1447.63327 2261.05
1448.20739 501.971
1448.78173 262.171
1449.3563 252.272
1449.9311 378.797
1450.50613 4957.34
1451.08139 38164
1451.65687 76256.2
1452.23258 38520.1
1452.80852 5355.04
1453.38469 588.746
1453.96109 339.65
1454.53771 358.84
1455.11457 2179.43
1455.69165 15558.1
1456.26896 30851.1
1456.8465 15596.1
1457.42427 2239.04
1458.00227 400.661
1458.5805 488.97
1459.15896 4451.14
1459.73764 33015.4
1460.31656 65658.7
1460.8957 32994.4
1461.47508 4404.96
1462.05469 466.5
1462.63452 326.723
1463.21459 322.223
1463.79488 433.269
1464.37541 471.723
1464.95616 469.056
1465.53715 1476.3
1466.11837 8714.22
1466.69981 17045.6
1467.28149 8719.58
1467.8634 1502.03
1468.44554 2913.01
1469.02791 20635.7
1469.61051 41703.3
1470.19334 22547.1
1470.7764 4021.02
1471.3597 945.899
1471.94322 514.562
1472.52698 501.535
1473.11097 2353.26
1473.69519 5949.98
1474.27964 6339.14
1474.86432 4596.3
1475.44924 4728.89
1476.03439 2995.03
1476.61977 5698.79
1477.20538 12024.3
1477.79122 17509.9
1478.3773 25235.7
1478.96361 13834.5
1479.55015 13323.1
1480.13692 26941.8
1480.72393 20717.9
1481.31117 6502.77
1481.89864 4089
1482.48634 25794
1483.07428 51285.3
1483.66245 25796.9
1484.25086 3494.32
1484.8395 478.823
1485.42837 1551.65
1486.01747 9806.62
1486.60681 19234.3
1487.19638 10242.8
1487.78619 7895
1488.37623 38030.9
1488.9665 69315
1489.55701 34709.9
1490.14775 8862.79
1490.73873 8830.97
1491.32994 4765.41
1491.92139 2806.92
1492.51307 12973.2
1493.10498 25099.2
1493.69713 13057.4
1494.28952 2491.47
1494.88214 1049.83
1495.47499 1055.14
1496.06808 1080.88
1496.6614 1110.04
1497.25496 1162.3
1497.84876 1167.57
1498.44279 1195.97
1499.03706 1223.13
1499.63156 1309.78
1500.2263 1805.38
1500.82127 2349.31
1501.41648 1933.36
1502.01193 2291.58
1502.60761 3181.21
1503.20353 2250.2
1503.79968 2908.56
1504.39607 22239.2
1504.9927 111444
1505.58956 198453
1506.18666 129974
1506.784 78277
1507.38158 35057.3
1507.97939 12596.4
1508.57744 12902.8
1509.17572 6700.21
1509.77424 2135.04
1510.373 2149.1
1510.972 4785.25
1511.57124 7052.02
1512.17071 4139.53
1512.77042 1913.94
1513.37037 1850.86
1513.97056 2367.52
1514.57098 2956.35
1515.17164 2495.25
1515.77255 1795.25
1516.37368 1556.58
1516.97506 1637.78
1517.57668 4101.13
1518.17853 21128.6
1518.78063 40370.5
1519.38296 20942.4
1519.98553 4019.79
1520.58834 1689.12
1521.19139 1614.49
1521.79468 1603.64
1522.3982 1860.61
1523.00197 9855.52
1523.60598 67636.2
1524.21022 133682
1524.81471 67568.2
1525.41943 9722.91
1526.0244 1704.46
1526.6296 1440.57
1527.23505 1517.49
1527.84073 4381.6
1528.44666 25122.6
1529.05283 48779.1
1529.65923 25022.5
1530.26588 4251.54
1530.87276 1360.08
1531.47989 1507.07
1532.08726 9706.59
1532.69487 69083.5
1533.30272 136943
1533.91081 69034.8
1534.51915 9612.82
1535.12772 1369.67
1535.73653 1085.54
1536.34559 1062.61
1536.95489 1043.48
1537.56443 1096.23
1538.17421 3265.71
1538.78423 19041.2
1539.3945 37067.2
1540.00501 19033.8
1540.61576 3291.56
1541.22675 1236.49
1541.83798 6365.73
1542.44946 44564.7
1543.06118 88375.7
1543.67314 44829.7
1544.28534 6420.16
1544.89779 1137.99
1545.51048 2138.67
1546.12341 3585.45
1546.73659 2868.31
1547.35001 2415.91
1547.96367 1501.1
1548.57758 1160.25
1549.19173 3701.98
1549.80612 9554.83
1550.42076 17740.6
1551.03564 24598.1
1551.65076 15411.6
1552.26613 4473.74
1552.88174 3564.86
1553.4976 22328.2
1554.1137 54377.6
1554.73004 48317.9
1555.34663 17022.9
1555.96347 3249.87
1556.58054 7190.25
1557.19787 13649.8
1557.81544 7225.65
1558.43325 4845.62
1559.05131 28166.9
1559.66961 55847.6
1560.28816 28503.5
1560.90695 4198.67
1561.52599 772.377
1562.14528 2695.75
1562.76481 15986.2
1563.38458 30661.4
1564.0046 19708.9
1564.62487 37507.4
1565.24538 76291.4
1565.86614 49290.5
1566.48715 12205.2
1567.1084 1894.57
1567.7299 1459.54
1568.35165 2118.84
1568.97364 3082.19
1569.59588 12245.6
1570.21836 23519.2
1570.84109 13390
1571.46407 3547.36
1572.0873 2303.73
1572.71077 2741.96
1573.33449 3565.22
1573.95846 4502.18
1574.58267 4317.93
1575.20714 4909.78
1575.83185 6070.32
1576.4568 5176.08
1577.08201 4053.31
1577.70746 5608.97
1578.33317 5915.28
1578.95912 4181.6
1579.58531 6222.23
1580.21176 13112
1580.83846 15770.1
1581.4654 8453.59
1582.09259 18904
1582.72003 105899
1583.34772 200969
1583.97566 133852
1584.60385 80380.3
1585.23229 34944.9
1585.86097 8581.77
1586.48991 14859
1587.11909 23594.3
1587.74853 11893.9
1588.37821 3702.36
1589.00815 5695.89
1589.63833 8222.25
1590.26876 4514.91
1590.89945 1853.43
1591.53038 1972.15
1592.16156 1654.94
1592.793 2087.23
1593.42468 2471.35
1594.05662 1510.43
1594.6888 909.451
1595.32124 931.33
1595.95393 3154.56
1596.58687 20257.2
1597.22006 39880.3
1597.8535 20293.2
1598.48719 3193.35
1599.12113 715.984
1599.75533 555.625
1600.38977 547.521
1601.02447 810.561
1601.65942 8738.45
1602.29462 65849.9
1602.93007 131086
1603.56578 65868.3
1604.20173 8826.57
1604.83794 939.398
1605.4744 731.323
1606.11112 829.353
1606.74809 3749.39
1607.3853 25191.5
1608.02278 49723.8
1608.6605 25200.3
1609.29848 3743.67
1609.93671 788.604
1610.57519 709.198
1611.21393 986.203
1611.85292 9365.02
1612.49216 69809.4
1613.13166 138883
1613.77141 69835.4
1614.41142 9419.55
1615.05167 1069.45
1615.69219 813.62
1616.33295 822.366
1616.97397 833.78
1617.61525 917.826
1618.25678 3208.55
1618.89856 19693.8
1619.5406 38533.6
1620.18289 19719.7
1620.82544 3263.39
1621.46824 1172.79
1622.1113 6636.76
1622.75461 46566.2
1623.39818 92191.6
1624.042 46630.4
1624.68608 6811.57
1625.33041 1276.33
1625.975 1064.9
1626.61984 1340.53
1627.26494 1828.38
1627.9103 1695.85
1628.55591 1228.7
1629.20178 1187.43
1629.8479 2434.12
1630.49428 5159.84
1631.14092 13274.3
1631.78781 22930.4
1632.43496 11846.2
1633.08237 2950.27
1633.73003 8538.47
1634.37795 32484.2
1635.02613 49701.8
1635.67456 25723.8
1636.32325 8474.22
1636.9722 3388.35
1637.62141 2687.15
1638.27087 13599.9
1638.92059 26403.3
1639.57057 13579.4
1640.22081 3047.34
1640.8713 6625.38
1641.52205 12440.7
1642.17306 6639.25
1642.82433 4464.32
1643.47586 25702.9
1644.12764 53718.1
1644.77968 33164.1
1645.43199 7676.45
1646.08455 1717.69
1646.73737 6245.13
1647.39045 22334.7
1648.04378 32456.7
1648.69738 18624.1
1649.35124 31640.5
1650.00535 59299.2
1650.65973 29845.4
1651.31436 4125.12
1651.96925 556.198
1652.62441 428.228
1653.27982 450.157
1653.93549 1703.17
1654.59143 10873.8
1655.24762 21355.2
1655.90407 10843.7
1656.56079 1648.64
1657.21776 509.571
1657.875 1510.02
1658.53249 2700.41
1659.19025 1486.93
1659.84826 687.025
1660.50654 2467.84
1661.16508 4670.26
1661.82388 2463.05
1662.48294 531.944
1663.14227 266.135
1663.80185 258.904
1664.4617 258.337
1665.12181 252.816
1665.78217 246.682
1666.44281 253.329
1667.1037 588.89
1667.76486 10850.7
1668.42627 84976.6
1669.08795 170087
1669.7499 90919.5
1670.4121 43538
1671.07457 58650.6
1671.7373 30450.9
1672.40029 15214.2
1673.06355 20494.3
1673.72707 10203.8
1674.39085 1922.81
1675.05489 1728.64
1675.7192 4412.92
1676.38378 6344.04
1677.04861 3077.06
1677.71371 621.489
1678.37907 306.906
1679.0447 470.644
1679.71059 1160.95
1680.37675 1725.98
1681.04317 966.334
1681.70985 396.562
1682.3768 1130.28
1683.04401 7698.55
1683.71149 20841.4
1684.37923 22146.8
1685.04724 9021.89
1685.71551 1437.99
1686.38405 375.518
1687.05285 334.496
1687.72192 349.17
1688.39125 617.542
1689.06085 7457.57
1689.73071 56414.8
1690.40084 112405
1691.07123 56464.4
1691.74189 7429.33
1692.41282 611.584
1693.08401 395.504
1693.75547 481.504
1694.4272 3062.11
1695.09919 21667.1
1695.77145 42930.2
1696.44397 21683.2
1697.11677 3087.03
1697.78982 519.649
1698.46315 447.498
1699.13674 681.552
1699.8106 7829.15
1700.48473 59445.2
1701.15912 118434
1701.83378 59458.2
1702.50871 7854.65
1703.18391 718.865
1703.85937 495.616
1704.53511 497.004
1705.21111 500.241
1705.88738 561.8
1706.56391 2568.89
1707.24072 17081
1707.91779 33644.2
1708.59513 17048.8
1709.27274 2541.68
1709.95062 614.114
1710.62877 3115.35
1711.30719 23587.9
1711.98587 62126.6
1712.66483 62122.1
1713.34405 23575.4
1714.02355 3094.49
1714.70331 524.264
1715.38334 442.516
1716.06365 440.505
1716.74422 450.253
1717.42506 470.279
1718.10617 518.979
1718.78756 629.409
1719.46921 1748.93
1720.15113 9998.1
1720.83333 19601.4
1721.51579 10357.4
1722.19853 2087.83
1722.88153 864.336
1723.56481 4126.4
1724.24835 23017.6
1724.93217 42627.6
1725.61626 22121.6
1726.30062 3635.73
1726.98526 1083.79
1727.67016 4625.3
1728.35534 8863.45
1729.04078 4879.52
1729.7265 3023.61
1730.41249 4626.03
1731.09876 2527.11
1731.78529 1945.82
1732.4721 10927.4
1733.15918 21496.7
1733.84653 11428.1
1734.53416 6198.02
1735.22205 13022.3
1735.91022 13842.9
1736.59867 6188.29
1737.28738 7776.03
1737.97637 31558.6
1738.66564 51046
1739.35517 24224.8
1740.04498 3268.01
1740.73507 445.949
1741.42542 1310.22
1742.11605 8234.87
1742.80696 16237.6
1743.49814 11077
1744.18959 24082.8
1744.88132 45905.4
1745.57332 23087.3
1746.26559 3148.21
1746.95814 386.877
1747.65097 296.306
1748.34407 400.866
1749.03744 2008.47
1749.73109 10304.3
1750.42502 18443.8
1751.11922 9268.68
1751.81369 2663.46
1752.50844 3747.31
1753.20347 3709.43
1753.89877 1551.45
1754.59435 405.886
1755.2902 262.387
1755.98633 253.089
1756.68274 251.567
1757.37942 248.839
1758.07638 239.46
1758.77361 231.995
1759.47112 228.042
1760.16891 226.99
1760.86697 226.626
1761.56531 222.33
1762.26393 222.756
1762.96283 465.865
1763.662 8158.77
1764.36145 63818.6
1765.06118 127820
1765.76118 68504.9
1766.46146 32203.4
1767.16202 42360.4
1767.86286 21006.2
1768.56398 5406.06
1769.26537 9478.31
1769.96704 15332.8
1770.66899 7474.74
1771.37122 1360.06
1772.07373 1039.34
1772.77651 2724.63
1773.47958 4765.76
1774.18292 2460.83
1774.88654 454.479
1775.59044 193.779
1776.29462 344.473
1776.99908 932.464
1777.70382 1429.28
1778.40884 786.327
1779.11414 298.711
1779.81972 958.586
1780.52557 6436.41
1781.23171 12753
1781.93813 6591.22
1782.64483 1243.5
1783.3518 476.719
1784.05906 358.293
1784.7666 388.784
1785.47442 369.892
1786.18252 442.395
1786.8909 5465.97
1787.59956 42121.6
1788.30851 84060.8
1789.01773 42150.9
1789.72723 5435.91
1790.43702 370.95
1791.14709 234.213
1791.85744 239.343
1792.56807 295.769
1793.27898 354.283
1793.99018 306.796
1794.70166 240.417
1795.41342 260.496
1796.12546 295.706
1796.83778 287.588
1797.55039 407.611
1798.26328 5825.78
1798.97645 45107.8
1799.68991 90085.4
1800.40364 45330.9
1801.11766 6117.11
1801.83197 657.901
1802.54656 474.729
1803.26143 395.424
1803.97658 323.134
1804.69202 342.005
1805.40774 1592.78
1806.12375 9972.56
1806.84003 19360.1
1807.55661 9883.02
1808.27347 1550.8
1808.99061 377.39
1809.70803 462.404
1810.42575 3578
1811.14374 25010.5
1811.86202 49350
1812.58059 24996.3
1813.29944 3588.26
1814.01857 519.608
1814.73799 523.887
1815.4577 708.969
1816.17769 691.395
1816.89797 556.372
1817.61853 492.39
1818.33938 574.065
1819.06051 630.095
1819.78193 1107.78
1820.50364 3583.95
1821.22563 6129.62
1821.94791 3538.34
1822.67047 1117.53
1823.39332 508.212
1824.11646 1252.95
1824.83989 7575.32
1825.5636 14900.6
1826.2876 8076.94
1827.01188 1771.37
1827.73646 839.423
1828.46132 1063.98
1829.18647 1227.66
1829.9119 1126.17
1830.63763 1075.41
1831.36364 1098.37
1832.08994 1060.1
1832.81652 1134.27
1833.5434 1010.83
1834.27056 1075.46
1834.99802 1315.91
1835.72576 1406.05
1836.45379 1450.1
1837.1821 1439.74
1837.91071 1424.67
1838.63961 1278.16
1839.36879 1296.73
1840.09826 1452.55
1840.82803 1450.78
1841.55808 1697.51
1842.28842 2722.26
1843.01905 3655.2
1843.74998 2317.2
1844.48119 1565.08
1845.21269 5088.05
1845.94448 9651.62
1846.67656 5831.97
1847.40894 2323.17
1848.1416 1825.6
1848.87455 1639.35
1849.6078 1473.77
1850.34133 1516.26
1851.07516 1674.73
1851.80927 4022.24
1852.54368 7202.55
1853.27838 4658.22
1854.01337 2178.62
1854.74865 1568.63
1855.48422 1618.13
1856.22009 2162.42
1856.95625 2293.77
1857.6927 3495.02
1858.42944 5125.03
1859.16647 3448.3
1859.9038 2186.28
1860.64141 1927.28
1861.37932 1438.72
1862.11753 1149.71
1862.85602 1275.36
1863.59481 1451.83
1864.33389 1722.48
1865.07327 1586.06
1865.81294 1227.38
1866.5529 1343.16
1867.29315 1899.67
1868.0337 2202.79
1868.77454 2118.19
1869.51568 2161.4
1870.25711 2306.28
1870.99883 2419.72
1871.74085 2325.29
1872.48317 2261.06
1873.22577 2979.45
1873.96867 6835.65
1874.71187 11236.1
1875.45536 7029.87
1876.19915 3435.06
1876.94323 3331.18
1877.6876 2725.24
1878.43227 2397.17
1879.17724 3706.77
1879.9225 5706.02
1880.66806 3965.39
1881.41391 2093.91
1882.16006 1512
1882.9065 1750.3
1883.65324 2234.7
1884.40028 2197.89
1885.14761 1765.34
1885.89524 1707.86
1886.64317 1761.45
1887.39139 1460.46
1888.13991 1374.1
1888.88873 1895.85
1889.63784 2411.9
1890.38725 3526.21
1891.13696 4427.4
1891.88696 3368.53
1892.63727 2456.67
1893.38787 2241.99
1894.13876 2074.26
1894.88996 1655.73
1895.64145 1314.83
1896.39324 1391.27
1897.14533 1786.62
1897.89772 2459.03
1898.6504 2839.26
1899.40339 3148.46
1900.15667 3191.19
1900.91025 2806.8
1901.66414 2358.82
1902.41831 2556.51
1903.17279 2952.85
1903.92757 3650.19
1904.68265 5042.4
1905.43803 4503.25
1906.1937 3616.81
1906.94968 3104.3
1907.70595 2198.05
1908.46253 1841.28
1909.21941 2003.35
1909.97658 2226.46
1910.73406 2837.07
1911.49183 3249.56
1912.24991 3080.68
1913.00829 3224.59
1913.76697 3586.43
1914.52595 3217.96
1915.28523 2679.32
1916.04481 2909.68
1916.80469 2786.5
1917.56488 2132.92
1918.32536 3819.24
1919.08615 7045.76
1919.84724 5998.73
1920.60863 4307.6
1921.37032 3210.28
1922.13232 1951.84
1922.89462 1733.84
1923.65722 4457.34
1924.42012 18681.6
1925.18332 33721.8
1925.94683 17718
1926.71064 4591.2
1927.47475 3199.09
1928.23917 2952.41
1929.00389 2557.23
1929.76891 2370.03
1930.53423 2951.87
1931.29986 3076.75
1932.0658 2507.21
1932.83203 2142.96
1933.59857 2819.47
1934.36542 7461.1
1935.13257 12199.1
1935.90002 7169.19
1936.66778 3065.15
1937.43584 2318
1938.20421 2768.45
1938.97288 3655.98
1939.74185 3989.93
1940.51113 2952.32
1941.28072 2484.99
1942.05061 1745.13
1942.82081 1305.16
1943.59131 1773.8
1944.36212 2235.9
1945.13323 2325.19
1945.90465 1741.08
1946.67637 1508.06
1947.44841 2053.7
1948.22074 2223.26
1948.99339 1885.6
1949.76634 1714.22
1950.53959 1733.06
1951.31316 3395.3
1952.08703 5826.01
1952.8612 4410.89
1953.63569 2859.76
1954.41048 3132.98
1955.18558 5565.52
1955.96098 8056.73
1956.7367 5383.6
1957.51272 3317.99
1958.28904 3979.67
1959.06568 5029.88
1959.84263 3164.33
1960.61988 1759.15
1961.39744 2528.85
1962.17531 3948
1962.95349 3948.63
1963.73197 7261.43
1964.51077 11461.9
1965.28987 6307.94
1966.06928 2217.78
1966.84901 3313.66
1967.62904 5435
1968.40938 4259.49
1969.19003 8542.07
1969.97099 15401
1970.75226 8469.53
1971.53384 2425.48
1972.31573 1497.95
1973.09793 2595.95
1973.88044 4557.79
1974.66326 6146.6
1975.44639 9720.57
1976.22983 14990
1977.01358 22174.1
1977.79764 11022.6
1978.58201 1782.58
1979.3667 1021.57
1980.15169 1491.19
1980.937 939.862
1981.72262 383.485
1982.50855 772.519
1983.29479 4115.66
1984.08135 7873.74
1984.86821 4103.78
1985.65539 774.617
1986.44288 622.862
1987.23068 1019.36
1988.0188 753.072
1988.80722 752.104
1989.59596 1091.81
1990.38501 1152.83
1991.17438 831.724
1991.96406 948.656
1992.75405 906.567
1993.54435 600.499
1994.33497 596.187
1995.12591 549.916
1995.91715 713.187
1996.70871 994.717
1997.50058 1433.91
1998.29277 2151.6
1999.08527 4931.51
1999.87809 22986.2
2000.67122 43744.6
2001.46466 24774.6
2002.25842 12613.4
2003.0525 16123.6
2003.84689 10230.8
2004.64159 5183.44
2005.43661 4759.67
2006.23195 5459.53
2007.0276 6316.03
2007.82356 4094.23
2008.61984 2215.54
2009.41644 2151.95
2010.21335 2748.19
2011.01058 3509.15
2011.80813 4315.01
2012.60599 4204.14
2013.40417 3697.94
2014.20266 3420.07
2015.00147 3358.84
2015.8006 3463.24
2016.60005 3690.28
2017.39981 4047.32
2018.19989 6195.31
2019.00028 8731.29
2019.801 5576.71
2020.60203 2826.3
2021.40338 2209.28
2022.20505 1964.74
2023.00703 1802.1
2023.80933 1609.88
2024.61195 1425.62
2025.41489 1143.54
2026.21815 2834.47
2027.02173 17438.5
2027.82562 34366.5
2028.62984 17542.4
2029.43437 2632.22
2030.23922 473.847
2031.04439 337.215
2031.84988 320.628
2032.65569 1346.89
2033.46182 8409.06
2034.26827 16312.4
2035.07504 8206.61
2035.88213 1161.65
2036.68954 186.378
2037.49727 175.706
2038.30532 220.056
2039.11369 385.825
2039.92238 3263
2040.73139 23203
2041.54072 45929.9
2042.35038 23082
2043.16035 3144.64
2043.97065 435.889
2044.78126 324.829
2045.5922 281.946
2046.40346 340.676
2047.21504 564.497
2048.02695 1275.82
2048.83917 5068.72
2049.65172 9497.13
2050.46459 5729.21
2051.27778 2507.75
2052.0913 2211.09
2052.90514 2489.28
2053.7193 2533.23
2054.53378 4477.18
2055.34859 17573.5
2056.16372 32136
2056.97917 17281.4
2057.79494 4180.74
2058.61104 1681.76
2059.42747 999.369
2060.24421 760.999
2061.06128 945.78
2061.87868 1546.78
2062.6964 2172.03
2063.51444 2176.12
2064.33281 2071.53
2065.1515 2124.54
2065.97052 2235.02
2066.78986 2463.16
2067.60953 2809.74
2068.42952 2657.87
2069.24984 2171.97
2070.07048 1882.15
2070.89145 2320.06
2071.71274 7060.52
2072.53436 16170.2
2073.3563 16160.3
2074.17858 6757.12
2075.00117 1637.06
2075.8241 892.987
2076.64735 815.696
2077.47092 753.119
2078.29482 547.841
2079.11905 340.307
2079.94361 252.442
2080.76849 254.046
2081.5937 315.344
2082.41924 369.11
2083.24511 401.521
2084.0713 726.892
2084.89782 2702.86
2085.72467 4805.87
2086.55184 2559.8
2087.37935 634.36
2088.20718 389.611
2089.03534 914.054
2089.86383 4823.94
2090.69265 9258.19
2091.5218 4733.41
2092.35127 799.848
2093.18107 293.534
2094.01121 320.164
2094.84167 222.504
2095.67246 138.262
2096.50358 115.556
2097.33503 146.108
2098.16682 265.072
2098.99893 362.54
2099.83137 327.877
2100.66414 611.848
2101.49724 1042.33
2102.33067 1273.39
2103.16443 1470.29
2103.99852 770.088
2104.83295 824.189
2105.6677 3328.8
2106.50279 5565.53
2107.3382 2694.1
2108.17395 507.466
2109.01003 1161.69
2109.84644 3888.5
2110.68318 7999.49
2111.52026 9511.59
2112.35766 4175.37
2113.1954 577.734
2114.03347 280.583
2114.87188 1774.29
2115.71061 4237.27
2116.54968 8080.29
2117.38908 12995.6
2118.22882 6631.06
2119.06888 1047.45
2119.90928 216.594
2120.75002 145.196
2121.59108 391.437
2122.43248 2614.38
2123.27422 6034.7
2124.11629 9582.6
2124.95869 14185.6
2125.80142 6965.32
2126.64449 1173.44
2127.4879 734.083
2128.33164 576.529
2129.17571 196.012
2130.02012 104.369
2130.86486 804.993
2131.70994 3433.15
2132.55535 5408.52
2133.4011 2529.27
2134.24719 324.433
2135.09361 67.3613
2135.94036 108.47
2136.78745 64.5966
2137.63488 29.8638
2138.48264 31.7645
2139.33074 34.0816
2140.17918 23.3918
2141.02795 15.9438
2141.87706 20.204
2142.7265 26.4462
2143.57629 28.7323
2144.42641 28.328
2145.27686 27.3681
2146.12766 39.3763
2146.97879 60.3074
2147.83026 156.969
2148.68206 2476.29
2149.53421 19149.6
2150.38669 38300.6
2151.23951 19622.9
2152.09267 4302.85
2152.94617 8471.22
2153.8 14723.4
2154.65418 7415.47
2155.50869 1325.2
2156.36354 895.022
2157.21873 3053.32
2158.07426 5573.78
2158.93013 2930.73
2159.78634 569.52
2160.64289 218.232
2161.49978 323.752
2162.357 802.457
2163.21457 1800.55
2164.07248 2274.5
2164.93073 1039
2165.78932 229.062
2166.64824 198.973
2167.50751 338.346
2168.36712 526.39
2169.22708 879.407
2170.08737 4258.38
2170.948 8291.82
2171.80898 4236.03
2172.67029 765.471
2173.53195 352.155
2174.39395 392.568
2175.25629 368.403
2176.11897 374.087
2176.982 208.605
2177.84537 233.668
2178.70908 2046.18
2179.57313 13566.9
2180.43753 26313.5
2181.30226 13128.5
2182.16735 2030.92
2183.03277 944.655
2183.89854 1035.73
2184.76465 1187.32
2185.6311 1287.71
2186.4979 5624.31
2187.36504 11127.4
2188.23253 5777.74
2189.10036 916.936
2189.96853 264.212
2190.83705 307.954
2191.70591 151.49
2192.57512 116.33
2193.44467 2136.34
2194.31457 16089.6
2195.18481 31756.5
2196.0554 15972.4
2196.92633 2356.04
2197.79761 871.261
2198.66923 1390.3
2199.5412 1456.71
2200.41351 1247.02
2201.28617 834.11
2202.15918 667.472
2203.03253 663.616
2203.90623 1475.14
2204.78028 5864.52
2205.65467 10192
2206.52941 5183.68
2207.4045 926.045
2208.27993 181.77
2209.15571 129.427
2210.03184 238.502
2210.90831 1703.38
2211.78513 12385.2
2212.6623 24659.9
2213.53982 12427.4
2214.41769 1823.42
2215.2959 636.313
2216.17447 830.949
2217.05338 524.001
2217.93264 243.002
2218.81225 177.579
2219.6922 190.974
2220.57251 287.074
2221.45316 415.29
2222.33417 355.264
2223.21552 626.738
2224.09723 3456.8
2224.97928 6760.9
2225.86168 3629.39
2226.74444 917.477
2227.62754 438.999
2228.51099 282.508
2229.3948 1097.23
2230.27895 7571.53
2231.16345 15138.1
2232.04831 8012.59
2232.93352 1478.78
2233.81907 486.31
2234.70498 413.681
2235.59124 530.907
2236.47785 686.855
2237.36482 625.18
2238.25213 492.606
2239.1398 438.794
2240.02782 570.248
2240.91619 597.96
2241.80491 595.605
2242.69399 648.22
2243.58342 779.624
2244.4732 899.632
2245.36333 2198.81
2246.25382 4193.04
2247.14466 2884.03
2248.03585 973.429
2248.9274 540.495
2249.8193 1120.74
2250.71156 4215.94
2251.60416 7573.26
2252.49713 4229.65
2253.39044 1493.59
2254.28411 1250.69
2255.17814 1140.88
2256.07252 1287.24
2256.96725 1466.15
2257.86234 1072.23
2258.75779 761.466
2259.65358 823.333
2260.54974 1421.4
2261.44625 2146.99
2262.34311 1865.71
2263.24034 1316.72
2264.13791 1462.15
2265.03585 1521.86
2265.93413 849.518
2266.83278 729.596
2267.73178 1896.02
2268.63114 3254.04
2269.53085 2673.06
2270.43093 1676.34
2271.33136 1360.92
2272.23214 1684.31
2273.13328 2432.47
2274.03478 3598.98
2274.93664 3205.8
2275.83886 3163.61
2276.74143 2386.45
2277.64436 1416.19
2278.54765 872.961
2279.4513 811.276
2280.35531 1402.85
2281.25967 1704.21
2282.16439 1981.37
2283.06948 3004.92
2283.97492 2742.82
2284.88072 1774.69
2285.78688 1442.16
2286.69339 1133.49
2287.60027 934.066
2288.50751 1343.16
2289.41511 2514.1
2290.32307 3133.75
2291.23138 2768.04
2292.14006 2400.2
2293.0491 2091.41
2293.9585 2795.27
2294.86826 3738.22
2295.77838 3763.06
2296.68886 2430.11
2297.5997 2474.3
2298.51091 3926.82
2299.42247 3656.95
2300.3344 3113.44
2301.24668 2276.17
2302.15933 1920.6
2303.07235 2482.4
2303.98572 3133.25
2304.89946 2696.36
2305.81355 2189.28
2306.72802 2270.2
2307.64284 2413.62
2308.55803 1668.31
2309.47358 1172.48
2310.38949 827.923
2311.30576 649.368
2312.2224 631.968
2313.13941 335.896
2314.05677 303.267
2314.9745 1364.46
2315.8926 4871.89
2316.81106 9015.01
2317.72988 8697.59
2318.64906 6289.83
2319.56862 4481.52
2320.48853 3566.17
2321.40881 4636.7
2322.32946 6840.86
2323.25047 5446.23
2324.17185 3135.43
2325.09359 2343.98
2326.0157 1808.39
2326.93817 1343.94
2327.86101 2050.49
2328.78421 3256.55
2329.70778 2584.79
2330.63172 2483.05
2331.55602 3106.67
2332.48069 2519.98
2333.40573 1947.51
2334.33114 2676.95
2335.25691 3420
2336.18304 3049.9
2337.10955 2710.44
2338.03642 3841.37
2338.96366 6062.05
2339.89127 8672.34
2340.81925 10190.6
2341.74759 9304.39
2342.6763 5922.09
2343.60538 4896.24
2344.53483 5653.66
2345.46465 6515.29
2346.39484 6368.72
2347.32539 6706.23
2348.25631 7094.36
2349.18761 7855.05
2350.11927 11064
2351.0513 14791.3
2351.9837 19572.6
2352.91648 16507.8
2353.84962 9133.03
2354.78313 6448.99
2355.71701 7546.74
2356.65126 7078.27
2357.58589 8353.71
2358.52088 10590.9
2359.45624 5690.38
2360.39198 2899.93
2361.32809 3699.12
2362.26456 3465.68
2363.20141 5578.2
2364.13863 8329.42
2365.07622 5686.02
2366.01419 5743.29
2366.95252 9291.17
2367.89123 11287.4
2368.83031 13072.2
2369.76977 17902.6
2370.70959 29565.8
2371.64979 30651.1
2372.59036 18248.7
2373.5313 8427.37
2374.47262 5395.28
2375.41431 8617.3
2376.35638 15435
2377.29881 21165.9
2378.24162 26241.5
2379.18481 16773.1
2380.12837 10276.1
2381.0723 8290.13
2382.01661 12069.7
2382.96129 26826.8
2383.90635 33605.4
2384.85178 25542.7
2385.79759 23291
2386.74377 20886.9
2387.69033 22405.8
2388.63726 18449.6
2389.58457 12226.1
2390.53225 20961.4
2391.48031 33183.4
2392.42875 19322.9
2393.37756 8876.52
2394.32675 9279.85
2395.27631 11078.4
2396.22625 21044.7
2397.17657 28832.7
2398.12726 16531.8
2399.07834 9952.67
2400.02979 12358.7
2400.98161 9431.99
2401.93381 7964.72
2402.8864 16340.4
2403.83936 31643.9
2404.79269 30977.5
2405.74641 29286.7
2406.7005 38617.6
2407.65497 35092.4
2408.60982 25829.9
2409.56505 29216.8
2410.52066 24993.7
2411.47665 22784.9
2412.43301 19231.4
2413.38976 26886.4
2414.34688 44380.9
2415.30439 61448
2416.26227 79098.9
2417.22053 62502.6
2418.17918 82797.8
2419.1382 98114.1
2420.09761 49080.7
2421.05739 16911.5
2422.01756 16093.3
2422.9781 22510.5
2423.93903 33400
2424.90034 27552
2425.86203 27633.6
2426.8241 29650
2427.78655 15766
2428.74939 6831.01
2429.7126 5927.58
2430.6762 5588.37
2431.64018 8721.54
2432.60454 25448.9
2433.56929 55267.1
2434.53442 101190
2435.49993 166896
2436.46582 148191
2437.4321 59773.4
2438.39876 13548.7
2439.3658 5702.35
2440.33322 5193.55
2441.30103 6805.51
2442.26923 15057.3
2443.23781 24716.3
2444.20677 27282.1
2445.17611 71769.8
2446.14585 142982
2447.11596 129398
2448.08646 77086.8
2449.05735 67412.9
2450.02862 126546
2451.00027 154364
2451.97231 97387.2
2452.94474 54396.8
2453.91755 74468.8
2454.89075 86039
2455.86433 42743.8
2456.8383 14523.1
2457.81266 9313.13
2458.7874 9667.99
2459.76253 12104.3
2460.73804 21710.6
2461.71394 76125.6
2462.69023 136770
2463.66691 93000
2464.64397 49198.4
2465.62143 29587.4
2466.59927 39058.2
2467.57749 64862.8
2468.55611 48645.5
2469.53511 29391.6
2470.5145 55329
2471.49428 165433
2472.47445 273437
2473.45501 189533
2474.43595 79025.7
2475.41729 49772.7
2476.39901 40779.6
2477.38112 55245.7
2478.36363 80517.3
2479.34652 115372
2480.3298 171207
2481.31347 175546
2482.29754 121973
2483.28199 160357
2484.26683 232357
2485.25207 154593
2486.23769 127826
2487.22371 232490
2488.21011 302010
2489.19691 222188
2490.1841 149031
2491.17168 163348
2492.15965 212864
2493.14802 225353
2494.13677 288735
2495.12592 316613
2496.11546 207721
2497.10539 135529
2498.09572 129559
2499.08644 111733
2500.07755 91405.3
2501.06905 103358
2502.06095 189530
2503.05324 287829
2504.04592 254545
2505.039 289903
2506.03247 341983
2507.02634 222401
2508.0206 152632
2509.01525 207221
2510.0103 273247
2511.00575 374093
2512.00158 340541
2512.99782 277860
2513.99444 278423
2514.99147 449470
2515.98889 580433
2516.9867 556907
2517.98491 453287
2518.98352 380495
2519.98252 316822
2520.98192 248083
2521.98171 278507
2522.9819 376303
2523.98249 484156
2524.98347 487591
2525.98486 510165
2526.98663 532770
2527.98881 489753
2528.99138 506844
2529.99436 617056
2530.99772 679753
2532.00149 726409
2533.00566 696081
2534.01022 587554
2535.01518 628478
2536.02054 712065
2537.0263 663637
2538.03246 603129
2539.03901 573930
2540.04597 497889
2541.05332 590595
2542.06108 752065
2543.06923 845319
2544.07779 858553
2545.08674 815907
2546.09609 757141
2547.10585 796961
2548.116 854537
2549.12656 818940
2550.13752 805833
2551.14887 859081
2552.16063 883014
2553.17279 858360
2554.18535 744268
2555.19832 654441
2556.21168 602184
2557.22545 620865
2558.23961 699720
2559.25418 834115
2560.26916 965492
2561.28453 1.01977e+06
2562.30031 1.0262e+06
2563.31649 1.02961e+06
2564.33308 1.03332e+06
2565.35006 1.00391e+06
2566.36745 948550
2567.38525 955793
2568.40345 1.01932e+06
2569.42205 1.0577e+06
2570.44105 1.04361e+06
2571.46046 1.01926e+06
2572.48028 1.04546e+06
2573.50049 1.08502e+06
2574.52112 1.09026e+06
2575.54214 1.09257e+06
2576.56358 1.10615e+06
2577.58541 1.09245e+06
2578.60766 1.05763e+06
2579.63031 1.06787e+06
2580.65336 1.11396e+06
2581.67682 1.14035e+06
2582.70068 1.15278e+06
2583.72496 1.1709e+06
2584.74963 1.17127e+06
2585.77472 1.16518e+06
2586.80021 1.18466e+06
2587.82611 1.2013e+06
2588.85241 1.20229e+06
2589.87912 1.19186e+06
2590.90624 1.18264e+06
2591.93377 1.20094e+06
2592.9617 1.23246e+06
2593.99004 1.25496e+06
2595.01879 1.26757e+06
2596.04794 1.27007e+06
2597.07751 1.26013e+06
2598.10748 1.23863e+06
2599.13786 1.21855e+06
2600.16866 1.239e+06
2601.19985 1.27863e+06
2602.23146 1.29852e+06
2603.26348 1.31515e+06
2604.29591 1.33195e+06
2605.32874 1.34209e+06
2606.36199 1.34638e+06
2607.39564 1.34784e+06
2608.42971 1.34615e+06
2609.46418 1.35137e+06
2610.49907 1.34615e+06
2611.53437 1.34482e+06
2612.57007 1.36992e+06
2613.60619 1.38731e+06
2614.64272 1.39188e+06
2615.67966 1.4101e+06
2616.71701 1.43255e+06
2617.75477 1.44024e+06
2618.79294 1.44174e+06
2619.83153 1.4514e+06
2620.87053 1.45194e+06
2621.90994 1.42497e+06
2622.94976 1.39528e+06
2623.98999 1.3941e+06
2625.03064 1.43094e+06
2626.0717 1.48193e+06
2627.11317 1.50452e+06
2628.15505 1.50416e+06
2629.19735 1.52255e+06
2630.24006 1.54632e+06
2631.28319 1.55133e+06
2632.32673 1.54859e+06
2633.37068 1.55633e+06
2634.41505 1.5398e+06
2635.45983 1.47991e+06
2636.50502 1.41672e+06
2637.55063 1.38359e+06
2638.59666 1.40131e+06
2639.6431 1.43866e+06
2640.68995 1.52205e+06
2641.73722 1.58123e+06
2642.7849 1.57109e+06
2643.833 1.55828e+06
2644.88152 1.59553e+06
2645.93045 1.6384e+06
2646.9798 1.59962e+06
2648.02956 1.5116e+06
2649.07974 1.48123e+06
2650.13034 1.54037e+06
2651.18135 1.63983e+06
2652.23278 1.71333e+06
2653.28463 1.7271e+06
2654.3369 1.72588e+06
2655.38958 1.74542e+06
2656.44268 1.74173e+06
2657.49619 1.73312e+06
2658.55013 1.75453e+06
2659.60448 1.79964e+06
2660.65925 1.82139e+06
2661.71444 1.82955e+06
2662.77005 1.8381e+06
2663.82607 1.8599e+06
2664.88252 1.88637e+06
2665.93938 1.90286e+06
2666.99667 1.91358e+06
2668.05437 1.9193e+06
2669.11249 1.92933e+06
2670.17103 1.94526e+06
2671.22999 1.95292e+06
2672.28938 1.95708e+06
2673.34918 1.96828e+06
2674.4094 1.98051e+06
2675.47004 1.99827e+06
2676.5311 2.0175e+06
2677.59259 2.03021e+06
2678.65449 2.03854e+06
2679.71682 2.04799e+06
2680.77956 2.05094e+06
2681.84273 2.05533e+06
2682.90632 2.07276e+06
2683.97034 2.08777e+06
2685.03477 2.09866e+06
2686.09963 2.10955e+06
2687.1649 2.11344e+06
2688.23061 2.1178e+06
2689.29673 2.12301e+06
2690.36328 2.12426e+06
2691.43024 2.13476e+06
2692.49764 2.16266e+06
2693.56545 2.20036e+06
2694.63369 2.22208e+06
2695.70235 2.22814e+06
2696.77144 2.22292e+06
2697.84095 2.22622e+06
2698.91089 2.23755e+06
2699.98125 2.24886e+06
2701.05203 2.26945e+06
2702.12324 2.27126e+06
2703.19487 2.26839e+06
2704.26693 2.2803e+06
2705.33941 2.30102e+06
2706.41232 2.31758e+06
2707.48566 2.34563e+06
2708.55942 2.38204e+06
2709.6336 2.40792e+06
2710.70821 2.42004e+06
2711.78325 2.41414e+06
2712.85872 2.39547e+06
2713.93461 2.38457e+06
2715.01092 2.36682e+06
2716.08767 2.38159e+06
2717.16484 2.44856e+06
2718.24244 2.49638e+06
2719.32046 2.52541e+06
2720.39892 2.55234e+06
2721.4778 2.55873e+06
2722.55711 2.55523e+06
2723.63685 2.57777e+06
2724.71701 2.60262e+06
2725.7976 2.58844e+06
2726.87863 2.52828e+06
2727.96008 2.46088e+06
2729.04196 2.39316e+06
2730.12427 2.3839e+06
2731.207 2.45461e+06
2732.29017 2.52717e+06
2733.37377 2.57722e+06
2734.4578 2.66162e+06
2735.54225 2.69552e+06
2736.62714 2.68431e+06
2737.71246 2.72826e+06
2738.7982 2.7958e+06
2739.88438 2.83075e+06
2740.97099 2.84514e+06
2742.05803 2.84426e+06
2743.1455 2.80839e+06
2744.2334 2.78438e+06
2745.32174 2.80169e+06
2746.4105 2.79238e+06
2747.4997 2.81101e+06
2748.58933 2.84899e+06
2749.67939 2.8537e+06
2750.76988 2.89085e+06
2751.86081 2.95358e+06
2752.95217 2.98358e+06
2754.04396 3.01569e+06
2755.13618 3.05607e+06
2756.22884 3.07413e+06
2757.32193 3.06739e+06
2758.41546 3.05558e+06
2759.50942 3.06103e+06
2760.60381 3.08687e+06
2761.69863 3.13175e+06
2762.79389 3.17009e+06
2763.88959 3.18025e+06
2764.98572 3.18098e+06
2766.08228 3.2045e+06
2767.17928 3.22651e+06
2768.27671 3.23394e+06
2769.37458 3.23376e+06
2770.47289 3.2704e+06
2771.57163 3.29513e+06
2772.6708 3.29361e+06
2773.77042 3.26417e+06
2774.87046 3.2549e+06
2775.97095 3.30996e+06
2777.07187 3.3694e+06
2778.17322 3.29695e+06
2779.27502 2.50686e+06
