# Obtained using Skycalc tool from ESO webpage
# Not including telescope emissivity
Wave[nm] Radiance[photons/s/m**2/micron/arsec**2]
1430 93.7176
1430.16529 181.966
1430.3306 225.758
1430.49593 233.193
1430.66127 223.396
1430.82664 188.024
1430.99202 126.006
1431.15743 81.7879
1431.32285 89.1551
1431.48829 85.2554
1431.65375 59.5641
1431.81923 67.632
1431.98473 95.0098
1432.15025 112.638
1432.31579 68.655
1432.48135 35.919
1432.64692 73.7694
1432.81252 131.381
1432.97813 142.964
1433.14377 163.776
1433.30942 197.194
1433.47509 191.038
1433.64078 224.559
1433.80649 2213.06
1433.97222 16687
1434.13797 33210.3
1434.30374 16626.6
1434.46952 2140.34
1434.63533 189.927
1434.80115 173.684
1434.967 212.72
1435.13286 608.956
1435.29874 8461.38
1435.46465 63749.2
1435.63057 126973
1435.79651 63569.6
1435.96247 8062.08
1436.12844 345.74
1436.29444 124.738
1436.46046 168.694
1436.62649 460.621
1436.79255 2371.51
1436.95862 4593.88
1437.12472 4050.67
1437.29083 14234.3
1437.45696 27821.9
1437.62311 13931.7
1437.78928 1858.89
1437.95547 300.577
1438.12168 224.866
1438.28791 194.236
1438.45416 184.141
1438.62042 181.398
1438.78671 209.984
1438.95301 283.255
1439.11934 821.391
1439.28568 1445.79
1439.45204 1029.09
1439.61843 2574.12
1439.78483 4989.51
1439.95125 2778.19
1440.11769 1872.28
1440.28415 3127.82
1440.45062 1983.38
1440.61712 575.791
1440.78364 217.461
1440.95017 185.278
1441.11673 183.718
1441.2833 140.443
1441.4499 86.0595
1441.61651 109.807
1441.78314 193.277
1441.94979 378.133
1442.11646 535.501
1442.28315 377.776
1442.44986 534.097
1442.61659 1150.87
1442.78334 1225.69
1442.9501 529.232
1443.11689 184.25
1443.28369 209.61
1443.45052 238.108
1443.61736 234.726
1443.78423 225.189
1443.95111 209.313
1444.11801 173.357
1444.28493 153.157
1444.45187 163.991
1444.61883 210.162
1444.78581 232.464
1444.95281 217.589
1445.11983 182.96
1445.28686 133.294
1445.45392 78.4499
1445.621 30.5691
1445.78809 39.6442
1445.9552 154.653
1446.12234 281.303
1446.28949 253.566
1446.45666 263.516
1446.62385 1113.47
1446.79107 7177.33
1446.9583 14098.5
1447.12555 7116.13
1447.29281 1049
1447.4601 249.349
1447.62741 263.906
1447.79474 285.169
1447.96208 273.884
1448.12945 239.404
1448.29683 234.405
1448.46424 257.63
1448.63166 250.766
1448.7991 240.45
1448.96656 258.422
1449.13405 281.37
1449.30155 284.879
1449.46907 271.849
1449.63661 244.65
1449.80417 211.659
1449.97174 218.844
1450.13934 296.819
1450.30696 405.384
1450.4746 243.886
1450.64225 87.2754
1450.80993 89.2403
1450.97762 102.749
1451.14534 108.296
1451.31307 437.361
1451.48082 8723.45
1451.64859 73984.1
1451.81639 196083
1451.9842 195048
1452.15203 73361.7
1452.31988 9637.44
1452.48775 1724.24
1452.65563 779.288
1452.82354 316.946
1452.99147 213.271
1453.15942 260.339
1453.32738 309.594
1453.49537 318.96
1453.66337 335.53
1453.8314 343.569
1453.99944 334.929
1454.1675 321.971
1454.33559 300.52
1454.50369 302.388
1454.67181 326.609
1454.83995 326.404
1455.00811 300.316
1455.17629 221.592
1455.34449 162.546
1455.51271 235.064
1455.68095 313.204
1455.84921 540.653
1456.01748 6869.98
1456.18578 52678.4
1456.3541 105063
1456.52243 52713.3
1456.69079 6895.27
1456.85916 534.856
1457.02755 328.988
1457.19597 336.361
1457.3644 324.238
1457.53285 300.776
1457.70132 259.425
1457.86982 306.27
1458.03833 367.871
1458.20686 386.289
1458.37541 381.901
1458.54397 368.716
1458.71256 366.029
1458.88117 373.668
1459.0498 373.313
1459.21845 379.241
1459.38711 381.771
1459.5558 383.781
1459.7245 367.745
1459.89323 548.256
1460.06197 6994.67
1460.23074 59326
1460.39952 163807
1460.56832 172943
1460.73715 67367
1460.90599 8140.92
1461.07485 559.391
1461.24373 261.31
1461.41263 288.497
1461.58155 315.606
1461.75049 322.366
1461.91945 353.653
1462.08843 370.132
1462.25743 379.288
1462.42645 375.696
1462.59548 368.505
1462.76454 350.981
1462.93362 280.052
1463.10271 199.975
1463.27183 176.273
1463.44096 320.832
1463.61012 537.242
1463.77929 557.475
1463.94849 419
1464.1177 382.295
1464.28693 450.595
1464.45618 558.72
1464.62546 555.78
1464.79475 439.883
1464.96406 349.119
1465.13339 256.033
1465.30274 203.85
1465.47211 396.969
1465.6415 682.684
1465.81091 663.743
1465.98034 505.52
1466.14978 3875.98
1466.31925 29009.7
1466.48874 57710.8
1466.65825 28968.5
1466.82777 3851.21
1466.99732 410.53
1467.16688 406.161
1467.33647 390.277
1467.50607 344.099
1467.6757 385.629
1467.84534 452.234
1468.01501 406.235
1468.18469 359.338
1468.35439 343.346
1468.52412 336.87
1468.69386 355.122
1468.86362 358.539
1469.0334 324.178
1469.2032 296.095
1469.37302 758.988
1469.54286 10514
1469.71272 71397.2
1469.8826 137409
1470.0525 71507.9
1470.22242 15836.6
1470.39236 4059.8
1470.56232 609.177
1470.73229 126.708
1470.90229 145.963
1471.07231 319.615
1471.24235 1148.11
1471.4124 1944.98
1471.58248 1105.25
1471.75257 387.98
1471.92269 310.148
1472.09282 279.103
1472.26298 184.042
1472.43315 136.971
1472.60335 184.748
1472.77356 284.474
1472.94379 325.949
1473.11405 295.261
1473.28432 271.468
1473.45461 343.124
1473.62492 1888.3
1473.79526 13260.7
1473.96561 26358.9
1474.13598 13377.1
1474.30637 1989.24
1474.47678 412.253
1474.64721 350.352
1474.81766 346.941
1474.98813 387.453
1475.15862 1253.15
1475.32913 7461.47
1475.49966 14539.8
1475.6702 7369.88
1475.84077 1082.36
1476.01136 241.609
1476.18197 288.233
1476.35259 332.229
1476.52324 327.895
1476.69391 354.06
1476.86459 2430.9
1477.0353 17769.4
1477.20603 35377.3
1477.37677 17876.9
1477.54754 2507.6
1477.71832 306.756
1477.88913 333.462
1478.05995 5414.83
1478.2308 41903.6
1478.40166 83566.1
1478.57255 41964.7
1478.74345 5535.37
1478.91437 468.6
1479.08532 310.749
1479.25628 294.346
1479.42726 317.657
1479.59826 2828.14
1479.76929 22655.1
1479.94033 58040.1
1480.11139 55221.7
1480.28247 22150.7
1480.45357 18746.2
1480.62469 32870.6
1480.79583 16560.1
1480.96699 2357.39
1481.13817 407.614
1481.30937 339.568
1481.48059 294.212
1481.65183 222.344
1481.82309 222.359
1481.99437 248.227
1482.16567 236.892
1482.33699 279.014
1482.50833 320.119
1482.67969 337.29
1482.85107 671.106
1483.02246 11236.7
1483.19388 87721.1
1483.36532 175142
1483.53678 87740.4
1483.70826 11263.4
1483.87975 676.02
1484.05127 326.856
1484.22281 289.019
1484.39436 238.572
1484.56594 260.601
1484.73754 327.439
1484.90915 380.307
1485.08079 382.186
1485.25244 358.518
1485.42412 367.373
1485.59582 374.197
1485.76753 421.37
1485.93927 559.269
1486.11102 4447.73
1486.2828 32693.6
1486.45459 64935.6
1486.62641 32633.7
1486.79824 4416.24
1486.97009 551.055
1487.14197 435.547
1487.31386 466.159
1487.48578 493.619
1487.65771 534.09
1487.82966 509.605
1488.00164 475.775
1488.17363 1179.03
1488.34565 11883.1
1488.51768 75521.4
1488.68973 182700
1488.8618 176028
1489.0339 65371.1
1489.20601 8049.64
1489.37814 888.182
1489.5503 586.238
1489.72247 519.865
1489.89466 626.061
1490.06687 731.86
1490.2391 796.51
1490.41136 1665.79
1490.58363 8474.51
1490.75592 21268
1490.92823 21249
1491.10056 8465.6
1491.27292 1583.8
1491.44529 609.36
1491.61768 694.135
1491.79009 803.24
1491.96252 809.1
1492.13497 819.337
1492.30744 854.61
1492.47994 867.338
1492.65245 1041.25
1492.82498 6048.74
1492.99753 42361.2
1493.1701 83885.2
1493.34269 42423.8
1493.5153 6168.07
1493.68793 1169.1
1493.86058 983.879
1494.03325 945.861
1494.20594 964.127
1494.37866 996.174
1494.55139 1040.09
1494.72414 1023.81
1494.89691 956.487
1495.0697 968.331
1495.24251 1014.32
1495.41534 1059.27
1495.58819 1048.7
1495.76106 999.851
1495.93395 1083.4
1496.10686 1151.52
1496.27979 1104.27
1496.45274 1001.54
1496.62571 1019.25
1496.7987 1153.41
1496.97171 1229.4
1497.14474 1243.84
1497.31779 1240.1
1497.49086 1210.63
1497.66395 1177.72
1497.83706 1166.52
1498.01019 1106.53
1498.18334 1111.57
1498.35651 1187.29
1498.5297 1216.75
1498.70291 1244.23
1498.87615 1250.19
1499.0494 1223.12
1499.22267 1204.5
1499.39596 1234.14
1499.56927 1228.52
1499.7426 1196.01
1499.91595 1245.15
1500.08932 1295.6
1500.26271 1424.26
1500.43612 2350.51
1500.60955 4034.89
1500.783 3951.16
1500.95647 2278.12
1501.12996 1413.22
1501.30347 1300.68
1501.47701 1301.5
1501.65056 1257.98
1501.82413 1201.81
1501.99772 1271.21
1502.17133 1539.09
1502.34496 3209.98
1502.51861 6248.19
1502.69228 6105.33
1502.86598 3072.17
1503.03969 1500.07
1503.21342 1283.66
1503.38717 1269.33
1503.56094 1253.75
1503.73473 1220.3
1503.90855 1146.91
1504.08238 1174.56
1504.25623 1251.42
1504.4301 1252.66
1504.604 1224.15
1504.77791 1323.41
1504.95184 6675.27
1505.12579 73588.5
1505.29977 377841
1505.47376 653686
1505.64777 315181
1505.82181 40354.8
1505.99586 3855.37
1506.16993 11394.1
1506.34403 21790.8
1506.51814 24788.6
1506.69227 109842
1506.86643 215818
1507.0406 108568
1507.2148 14746.6
1507.38901 1792.54
1507.56324 1409.77
1507.7375 1428.76
1507.91177 1869.53
1508.08607 5019.28
1508.26038 8674.07
1508.43472 7190.28
1508.60907 19551.4
1508.78345 36907.4
1508.95784 19126.9
1509.13226 3558.1
1509.3067 1465.88
1509.48115 1444.55
1509.65563 1454.19
1509.83012 1455.78
1510.00464 1442.02
1510.17918 1428.27
1510.35373 1592.68
1510.52831 2689.34
1510.70291 3932.3
1510.87753 2724.05
1511.05216 2715.31
1511.22682 10420.8
1511.4015 19398.3
1511.5762 10438.2
1511.75092 2603.38
1511.92566 1526.18
1512.10041 1490.53
1512.27519 1467.71
1512.44999 1443.58
1512.62481 1461.96
1512.79965 1464.26
1512.97451 1481.9
1513.14939 1678.32
1513.32429 2018.32
1513.49921 2020.52
1513.67415 1972.39
1513.84911 2120.76
1514.02409 1790.68
1514.1991 1761.63
1514.37412 3497.93
1514.54916 5506.8
1514.72422 3546.12
1514.8993 2110.89
1515.07441 2485.73
1515.24953 2495.91
1515.42467 1900.2
1515.59983 1580.84
1515.77502 1549.47
1515.95022 1550.45
1516.12545 1522.62
1516.30069 1491.73
1516.47595 1523.34
1516.65124 1530.66
1516.82654 1510.43
1517.00187 1535.86
1517.17722 1552.52
1517.35258 1549.71
1517.52797 1590.52
1517.70337 1679.33
1517.8788 1644.55
1518.05425 1639.06
1518.22971 2172.99
1518.4052 10535.5
1518.58071 68296.4
1518.75624 134379
1518.93179 67929
1519.10735 9838.18
1519.28294 1821.97
1519.45855 1584.27
1519.63418 1597.62
1519.80983 1607.54
1519.9855 1608.81
1520.16119 1610.55
1520.3369 1602.34
1520.51263 1600.23
1520.68839 1619.83
1520.86416 1633.15
1521.03995 1634.45
1521.21576 1629.58
1521.39159 1620.05
1521.56745 1606.45
1521.74332 1588.67
1521.91921 1576.78
1522.09513 1596.62
1522.27106 1613.35
1522.44702 1601.34
1522.62299 1630.47
1522.79899 1676.03
1522.975 1618.16
1523.15104 1564.13
1523.32709 1551.15
1523.50317 2416.9
1523.67927 29873.5
1523.85539 228271
1524.03152 455005
1524.20768 228255
1524.38386 29836.2
1524.56006 2360.05
1524.73628 1487.72
1524.91252 1483.1
1525.08878 1476.41
1525.26506 1470.85
1525.44136 1463.93
1525.61768 1452.11
1525.79402 1439.58
1525.97038 1441.01
1526.14676 1440.47
1526.32317 1432.45
1526.49959 1422.32
1526.67603 1438.59
1526.8525 1485.3
1527.02898 1489.4
1527.20549 1428.11
1527.38201 1384.83
1527.55856 1385.69
1527.73512 1390.16
1527.91171 1394.49
1528.08831 1435.86
1528.26494 1826.38
1528.44159 11667.6
1528.61826 82749.4
1528.79494 164041
1528.97165 82685.9
1529.14838 11503.7
1529.32513 1645.94
1529.5019 1319.67
1529.67869 1305.36
1529.8555 1301.75
1530.03233 1297.86
1530.20919 1287.59
1530.38606 1279.67
1530.56295 1278.18
1530.73986 1274.82
1530.9168 1267.76
1531.09375 1255.89
1531.27073 1239.72
1531.44772 1232.68
1531.62474 1236.37
1531.80177 1235.35
1531.97883 1228.2
1532.1559 1221.74
1532.333 1214.89
1532.51012 1214.47
1532.68726 2110.71
1532.86442 30305.7
1533.04159 234082
1533.21879 466969
1533.39601 234067
1533.57325 30278.2
1533.75052 2067.18
1533.9278 1156.81
1534.1051 1143.12
1534.28242 1138.79
1534.45976 1131.23
1534.63713 1125.13
1534.81451 1115.61
1534.99192 1105.64
1535.16934 1096.28
1535.34679 1094.09
1535.52425 1090.61
1535.70174 1083.43
1535.87925 1077.9
1536.05677 1071.49
1536.23432 1067
1536.41189 1061.84
1536.58948 1056.77
1536.76709 1049.59
1536.94472 1042.53
1537.12237 1034.3
1537.30004 1032.21
1537.47773 1030.06
1537.65544 1026.12
1537.83318 1019.77
1538.01093 1011.7
1538.1887 1003.44
1538.3665 997.843
1538.54431 1008.18
1538.72215 1022.87
1538.90001 1004.33
1539.07788 1294.34
1539.25578 9194.82
1539.4337 63414.3
1539.61164 124204
1539.78959 62361
1539.96757 8603.34
1540.14557 1186.6
1540.3236 1084.31
1540.50164 1238.67
1540.6797 1075.76
1540.85778 974.924
1541.03588 1045.35
1541.21401 1043.57
1541.39215 945.36
1541.57032 882.783
1541.7485 868.381
1541.92671 861.128
1542.10493 856.399
1542.28318 857.931
1542.46145 860.224
1542.63974 1542.22
1542.81805 20114.7
1542.99638 149361
1543.17473 296913
1543.3531 152490
1543.53149 21826
1543.7099 2280.19
1543.88833 1961.81
1544.06679 1363.24
1544.24526 852.076
1544.42375 780.636
1544.60227 778.445
1544.7808 778.032
1544.95936 776.031
1545.13794 773.351
1545.31654 770.797
1545.49515 767.816
1545.67379 783.238
1545.85245 1348.63
1546.03113 5446.88
1546.20983 10130.9
1546.38856 5441.87
1546.5673 1338.72
1546.74606 769.275
1546.92484 758.83
1547.10365 1068.24
1547.28247 3320.58
1547.46132 5895.35
1547.64019 3315.84
1547.81907 1058.15
1547.99798 743.362
1548.17691 731.226
1548.35586 728.906
1548.53483 726.352
1548.71382 723.712
1548.89283 721.246
1549.07186 718.811
1549.25091 716.474
1549.42999 730.205
1549.60908 1278.93
1549.78819 6480.34
1549.96733 22068.8
1550.14648 31022.5
1550.32566 14312.5
1550.50486 2531.65
1550.68408 5148.34
1550.86332 33153.4
1551.04257 64235.4
1551.22186 32322.8
1551.40116 5722.67
1551.58048 9543.3
1551.75982 18155.1
1551.93918 9413.99
1552.11857 1766.03
1552.29797 706.587
1552.4774 671.055
1552.65684 668.315
1552.83631 665.92
1553.0158 663.426
1553.19531 661.861
1553.37483 793.03
1553.55438 5063.16
1553.73395 39114.9
1553.91355 103208
1554.09316 103377
1554.27279 45018.1
1554.45244 52447.8
1554.63212 95750
1554.81181 48479.5
1554.99153 6792.15
1555.17127 847.646
1555.35102 633.125
1555.5308 628.294
1555.7106 625.763
1555.89042 623.244
1556.07026 620.917
1556.25012 619.46
1556.43 702.041
1556.60991 3357.53
1556.78983 22564.2
1556.96978 44517.1
1557.14974 22612.4
1557.32973 3770.61
1557.50973 1532.41
1557.68976 1022.16
1557.86981 648.54
1558.04988 594.349
1558.22997 590.169
1558.41008 587.691
1558.59021 584.998
1558.77037 582.261
1558.95054 581.356
1559.13073 763.568
1559.31095 6667.31
1559.49118 53736.6
1559.67144 142302
1559.85172 142320
1560.03202 54368
1560.21234 8035.69
1560.39268 1439.97
1560.57304 645.478
1560.75342 557.243
1560.93382 551.943
1561.11424 549.542
1561.29469 547.089
1561.47515 544.636
1561.65564 542.155
1561.83615 539.561
1562.01667 536.594
1562.19722 533.379
1562.37779 536.474
1562.55838 857.788
1562.73899 7935.69
1562.91963 53566.8
1563.10028 103492
1563.28095 51615.1
1563.46165 6891.54
1563.64236 713.14
1563.8231 512.815
1564.00386 508.739
1564.18464 505.938
1564.36544 503.192
1564.54626 501.101
1564.7271 502.489
1564.90796 955.631
1565.08884 15228
1565.26975 119640
1565.45067 250017
1565.63162 155955
1565.81258 51754.8
1565.99357 14306
1566.17458 2024.25
1566.35561 728.509
1566.53666 887.565
1566.71773 705.203
1566.89882 718.66
1567.07993 917.067
1567.26107 691.416
1567.44222 496.577
1567.6234 517.075
1567.80459 866.579
1567.98581 1472.68
1568.16705 2661.35
1568.34831 4447.21
1568.52959 3090.4
1568.71089 1124.97
1568.89222 607.32
1569.07356 1102.08
1569.25492 1736.73
1569.43631 1193.48
1569.61771 1382.19
1569.79914 4598.8
1569.98059 23786.4
1570.16206 58732.7
1570.34355 56395.3
1570.52506 22420.3
1570.70659 4086.93
1570.88815 3081.93
1571.06972 5309.7
1571.25131 2881.85
1571.43293 757.15
1571.61457 654.063
1571.79623 2021.39
1571.9779 3603.99
1572.1596 2259.37
1572.34133 2502.5
1572.52307 4171.71
1572.70483 2312.96
1572.88662 922.4
1573.06842 2367.93
1573.25025 4286.28
1573.43209 2687.04
1573.61396 3431.08
1573.79585 7424.39
1573.97776 6903.9
1574.15969 2762.09
1574.34164 1019.85
1574.52362 2855.78
1574.70561 5239.06
1574.88763 3230.41
1575.06966 3782.91
1575.25172 6502.67
1575.4338 3505.66
1575.6159 1370.46
1575.79802 4745.49
1575.98016 10243.6
1576.16232 8240.78
1576.34451 6016.95
1576.52671 8867.82
1576.70894 7403.33
1576.89118 2760.18
1577.07345 962.84
1577.25574 2398.67
1577.43805 4317.27
1577.62038 2795.56
1577.80274 4262.68
1577.98511 10229.3
1578.1675 12747.6
1578.34992 9977.31
1578.53235 4018.17
1578.71481 1808.42
1578.89729 2394.16
1579.07979 1776.23
1579.26231 3419.07
1579.44485 6109.03
1579.62742 3287.75
1579.81 1001.39
1579.99261 2611.43
1580.17523 10749.1
1580.35788 19376.5
1580.54055 18816.1
1580.72324 27571.8
1580.90595 33564.7
1581.08868 18263.7
1581.27144 4708.91
1581.45421 1006.17
1581.637 526.449
1581.81982 498.917
1582.00266 563.602
1582.18552 1072.28
1582.3684 1649.93
1582.5513 1209.64
1582.73422 5910.81
1582.91716 72049.8
1583.10013 374160
1583.28311 648456
1583.46612 312217
1583.64915 40396.9
1583.8322 5555.57
1584.01527 11921.2
1584.19836 21950.3
1584.38147 25901.4
1584.56461 112065
1584.74776 219570
1584.93094 110166
1585.11413 15772.8
1585.29735 4106.58
1585.48059 2243.21
1585.66385 1894.31
1585.84714 3336.64
1586.03044 5502.05
1586.21376 8303.17
1586.39711 4664.01
1586.58047 6941.65
1586.76386 39108.7
1586.94727 73303.5
1587.1307 37471.9
1587.31415 7370.42
1587.49763 1857.59
1587.68112 674.129
1587.86464 679.75
1588.04817 1772.82
1588.23173 3031.09
1588.41531 1907.55
1588.59891 1872.22
1588.78253 3902.44
1588.96617 4182.57
1589.14984 2010.82
1589.33352 2136.51
1589.51723 12094.4
1589.70095 23659.1
1589.8847 12185.9
1590.06847 2736.51
1590.25226 2103.03
1590.43608 1292.1
1590.61991 623.685
1590.80376 602.67
1590.98764 1118.38
1591.17154 1787.45
1591.35546 1874.03
1591.5394 2955.82
1591.72336 3387.9
1591.90734 1729.36
1592.09134 780.338
1592.27537 1436.22
1592.45941 2593.28
1592.64348 2089.52
1592.82757 1310.39
1593.01168 3195.42
1593.19581 5768.25
1593.37996 3149.86
1593.56414 860.069
1593.74833 544.291
1593.93255 556.625
1594.11679 716.984
1594.30105 919.199
1594.48533 879.396
1594.66963 883.021
1594.85395 700.77
1595.03829 611.835
1595.22266 979.2
1595.40705 1420.8
1595.59146 979.498
1595.77588 593.355
1595.96034 540.076
1596.14481 538.802
1596.3293 549.627
1596.51382 627.154
1596.69835 972.806
1596.88291 8999.09
1597.06749 67577.1
1597.25209 134925
1597.43671 68397.9
1597.62135 9356.04
1597.80602 859.905
1597.9907 587.31
1598.17541 877.478
1598.36014 1213.18
1598.54489 876.266
1598.72966 582.08
1598.91445 541.917
1599.09926 539.253
1599.2841 539.127
1599.46895 542.512
1599.65383 544.47
1599.83873 541.557
1600.02365 543.56
1600.20859 548.642
1600.39356 543.456
1600.57854 544.793
1600.76355 551.531
1600.94857 550.827
1601.13362 553.627
1601.31869 547.174
1601.50378 562.256
1601.6889 589.221
1601.87403 577.024
1602.05919 602.589
1602.24436 665.754
1602.42956 1107.42
1602.61478 15031.2
1602.80002 126512
1602.98529 336343
1603.17057 336220
1603.35588 126418
1603.5412 14999.5
1603.72655 1037.44
1603.91192 660.027
1604.09731 771.752
1604.28272 770.072
1604.46816 672.047
1604.65361 620.198
1604.83909 622.24
1605.02459 627.345
1605.21011 636.876
1605.39565 655.769
1605.58121 757.034
1605.7668 941.988
1605.9524 940.998
1606.13803 758.43
1606.32368 662.548
1606.50935 647.138
1606.69504 648.563
1606.88075 645.93
1607.06649 652.216
1607.25224 656.074
1607.43802 991.512
1607.62382 11183
1607.80964 84814.1
1607.99548 168980
1608.18134 84816.9
1608.36723 11190.3
1608.55313 1000.86
1608.73906 669.43
1608.92501 671.648
1609.11098 668.73
1609.29697 684.31
1609.48299 687.012
1609.66902 683.216
1609.85508 688.76
1610.04116 686.365
1610.22726 703.386
1610.41338 706.883
1610.59952 698.145
1610.78569 705.367
1610.97187 706.787
1611.15808 722.781
1611.34431 727.023
1611.53056 719.988
1611.71683 733.297
1611.90312 737.653
1612.08944 740.713
1612.27577 1665.85
1612.46213 30363
1612.64851 237716
1612.83491 474683
1613.02133 237718
1613.20778 30385.8
1613.39424 1695.21
1613.58073 775.572
1613.76724 777.836
1613.95377 781.885
1614.14032 781.138
1614.3269 789.332
1614.51349 792.944
1614.70011 791.722
1614.88675 797.615
1615.07341 801.33
1615.26009 802.13
1615.44679 807.512
1615.63351 810.783
1615.82026 811.962
1616.00703 816.876
1616.19382 820.259
1616.38063 821.939
1616.56746 826.163
1616.75431 829.238
1616.94119 831.202
1617.12809 835.657
1617.31501 839.68
1617.50195 842.615
1617.68891 845.849
1617.87589 848.619
1618.0629 851.239
1618.24992 855.257
1618.43697 858.801
1618.62404 861.51
1618.81113 995.771
1618.99825 5202.52
1619.18538 38448
1619.37254 99181.9
1619.55972 96342.5
1619.74692 35979.4
1619.93414 4881.39
1620.12138 1009.23
1620.30865 891.03
1620.49593 894.162
1620.68324 907.225
1620.87057 923.933
1621.05792 925.243
1621.2453 929.385
1621.43269 919.555
1621.62011 912.453
1621.80755 914.884
1621.995 921.083
1622.18249 928.103
1622.36999 930.247
1622.55751 933.884
1622.74506 963.012
1622.93263 1597.34
1623.12022 20474.4
1623.30783 157066
1623.49546 313499
1623.68312 157849
1623.87079 20872.3
1624.05849 1612.29
1624.24621 984.463
1624.43395 1152.7
1624.62172 1351.56
1624.8095 1166.73
1624.99731 1057.67
1625.18514 1147.27
1625.37299 1148.69
1625.56086 1040.88
1625.74875 984.668
1625.93667 979.3
1626.1246 982.595
1626.31256 986.819
1626.50054 994.603
1626.68855 1131.69
1626.87657 2099.19
1627.06462 3203.05
1627.25268 2102.37
1627.44077 1144.51
1627.62888 1091.98
1627.81702 1645.2
1628.00517 2278.64
1628.19335 1640.8
1628.38154 1082.32
1628.56976 1001.09
1628.758 994.606
1628.94627 991.514
1629.13455 987.27
1629.32286 982.256
1629.51119 978.504
1629.69954 993.458
1629.88791 1579.89
1630.0763 5844.1
1630.26472 10715.1
1630.45316 5825.6
1630.64161 1552.8
1630.8301 962.823
1631.0186 953.349
1631.20712 1403.19
1631.39567 7920.05
1631.58424 41009.6
1631.77283 73178.6
1631.96144 36058.2
1632.15007 5275.62
1632.33873 1045.36
1632.5274 905.231
1632.7161 897.034
1632.90482 888.305
1633.09356 884.335
1633.28233 884.596
1633.47112 882.608
1633.65992 943.312
1633.84875 2971.79
1634.0376 17653.8
1634.22648 34433.7
1634.41537 17791.3
1634.60429 7774.57
1634.79323 42992.5
1634.98219 113120
1635.17117 113220
1635.36018 43005.7
1635.5492 6041.81
1635.73825 4578.25
1635.92732 12168.7
1636.11641 14764.9
1636.30553 6696.16
1636.49466 1512.04
1636.68382 827.848
1636.873 804.595
1637.0622 801.034
1637.25142 795.275
1637.44067 780.417
1637.62993 760.487
1637.81922 758.396
1638.00853 768.773
1638.19786 856.812
1638.38722 3603.15
1638.57659 25517.7
1638.76599 66766.3
1638.95541 66749.4
1639.14485 25492.8
1639.33432 3576.33
1639.5238 821.847
1639.71331 731.857
1639.90284 726.794
1640.09239 710.644
1640.28196 689.328
1640.47156 691.839
1640.66118 704.154
1640.85082 782.977
1641.04048 3220.37
1641.23016 20854.8
1641.41986 41010.2
1641.60959 20845.5
1641.79934 3201.83
1641.98911 755.545
1642.1789 673.332
1642.36872 667.334
1642.55855 660.732
1642.74841 639.447
1642.93829 618.183
1643.12819 631.045
1643.31812 642.6
1643.50806 643.11
1643.69803 966.047
1643.88802 11156.4
1644.07803 84844.4
1644.26807 169891
1644.45812 92568.6
1644.6482 31793
1644.8383 21531.9
1645.02842 8316.15
1645.21857 1481.25
1645.40873 603.029
1645.59892 552.995
1645.78913 569.555
1645.97936 582.692
1646.16961 580.576
1646.35989 576.872
1646.55019 572.286
1646.74051 567.55
1646.93085 615.334
1647.12121 2291.8
1647.3116 15822.6
1647.50201 45255.2
1647.69244 75371.2
1647.88289 84403.8
1648.07336 36593.8
1648.26386 4847.14
1648.45437 643.529
1648.64491 517.697
1648.83548 514.039
1649.02606 509.643
1649.21667 504.461
1649.40729 503.989
1649.59794 890.615
1649.78861 13090.2
1649.97931 101271
1650.17002 202049
1650.36076 101263
1650.55152 13071.1
1650.7423 850.072
1650.93311 442.253
1651.12394 447.322
1651.31478 454.746
1651.50565 452.17
1651.69655 448.973
1651.88746 444.276
1652.0784 438.528
1652.26936 435.152
1652.46034 431.351
1652.65134 427.619
1652.84236 423.226
1653.03341 418.055
1653.22448 412.963
1653.41557 405.76
1653.60668 393.138
1653.79782 381.852
1653.98898 387.121
1654.18016 390.443
1654.37136 387.102
1654.56258 383.642
1654.75383 518.14
1654.9451 4872.56
1655.13639 36370.7
1655.3277 72370
1655.51903 36362.2
1655.71039 4854.29
1655.90177 489.861
1656.09317 345.84
1656.28459 337.362
1656.47603 328.918
1656.6675 327.559
1656.85899 326.606
1657.0505 322.567
1657.24203 318.04
1657.43359 313.992
1657.62517 309.609
1657.81677 304.963
1658.00839 308.667
1658.20003 562.722
1658.3917 2618.09
1658.58339 6492.71
1658.7751 6490.84
1658.96683 2606.48
1659.15859 538.69
1659.35036 273.907
1659.54216 262.575
1659.73398 259.197
1659.92583 255.641
1660.11769 254.033
1660.30958 254.085
1660.50149 269.207
1660.69342 743.495
1660.88538 4520.71
1661.07735 11621.7
1661.26935 11608.1
1661.46137 4509.28
1661.65342 742.92
1661.84548 270.721
1662.03757 255.459
1662.22968 254.098
1662.42181 254.301
1662.61397 256.128
1662.80614 257.432
1662.99834 257.942
1663.19056 258.124
1663.3828 258.109
1663.57507 258.358
1663.76736 258.911
1663.95967 259.407
1664.152 259.835
1664.34435 260.152
1664.53673 260.468
1664.72913 260.691
1664.92155 260.428
1665.11399 257.197
1665.30646 247.015
1665.49894 235.923
1665.69145 235.263
1665.88399 241.698
1666.07654 248.057
1666.26912 248.664
1666.46172 251.541
1666.65434 256.457
1666.84698 256.851
1667.03965 258.639
1667.23233 260.593
1667.42504 262.311
1667.61778 264.192
1667.81053 264.835
1668.00331 264.716
1668.19611 265.455
1668.38893 383.68
1668.58177 4827.27
1668.77464 61346.1
1668.96753 319129
1669.16044 553102
1669.35337 266074
1669.54633 33162.3
1669.73931 1327
1669.9323 1343.79
1670.12533 8807.86
1670.31837 17712.1
1670.51144 20685.4
1670.70453 96379.2
1670.89764 190389
1671.09077 95312.4
1671.28393 12148.8
1671.47711 641.111
1671.67031 274.183
1671.86353 284.92
1672.05678 691.149
1672.25005 3623.86
1672.44334 6976.52
1672.63665 3751.8
1672.82998 4766.81
1673.02334 32927
1673.21672 65911.4
1673.41012 33806.7
1673.60355 4823
1673.79699 461.531
1673.99046 277.622
1674.18395 272.487
1674.37747 269.382
1674.571 272.314
1674.76456 278.898
1674.95814 386.371
1675.15175 1343.13
1675.34537 3914.41
1675.53902 5106.48
1675.73269 2423.54
1675.92638 1700.86
1676.1201 9632.61
1676.31383 18971.4
1676.50759 9625.48
1676.70138 1447.65
1676.89518 315.822
1677.08901 279.865
1677.28286 279.094
1677.47673 275.701
1677.67062 272.475
1677.86454 277.046
1678.05848 281.045
1678.25244 281.643
1678.44643 281.549
1678.64043 282.204
1678.83446 284.31
1679.02851 327.923
1679.22259 640.411
1679.41668 997.558
1679.6108 649.952
1679.80494 615.801
1679.99911 2580.72
1680.19329 4874.67
1680.3875 2579.82
1680.58173 569.045
1680.77598 287.884
1680.97026 282.61
1681.16456 285.862
1681.35888 286.476
1681.55322 286.561
1681.74759 287.145
1681.94197 288.017
1682.13638 289.345
1682.33082 291.068
1682.52527 292.893
1682.71975 294.817
1682.91425 296.68
1683.10877 298.415
1683.30332 301.712
1683.49789 490.746
1683.69248 6338.77
1683.88709 48585.5
1684.08173 96867.9
1684.27638 48591.3
1684.47106 6404.87
1684.66577 969.599
1684.86049 1251.77
1685.05524 784.51
1685.25001 377.161
1685.4448 322.467
1685.63962 322.683
1685.83446 324.601
1686.02932 326.58
1686.2242 328.427
1686.4191 330.14
1686.61403 331.977
1686.80898 333.546
1687.00396 333.669
1687.19895 331.727
1687.39397 331.735
1687.58901 337.879
1687.78407 342.654
1687.97916 344.99
1688.17427 347.021
1688.3694 349.42
1688.56455 361.933
1688.75973 447.698
1688.95493 607.846
1689.15015 612.098
1689.34539 470.253
1689.54066 410.554
1689.73595 1128.93
1689.93126 24360.4
1690.12659 192325
1690.32195 384323
1690.51733 192515
1690.71273 24679.6
1690.90815 1397.66
1691.1036 673
1691.29907 513.942
1691.49456 393.335
1691.69007 379.787
1691.88561 381.927
1692.08117 383.187
1692.27675 384.491
1692.47236 386.742
1692.66799 389.585
1692.86364 392.19
1693.05931 394.181
1693.25501 395.893
1693.45072 397.803
1693.64646 398.957
1693.84223 397.597
1694.03801 396.248
1694.23382 401.109
1694.42965 405.805
1694.62551 408.737
1694.82138 552.66
1695.01728 5111.36
1695.2132 41430.3
1695.40915 109797
1695.60512 109807
1695.80111 41445.8
1695.99712 5128.45
1696.19315 571.334
1696.38921 433.19
1696.58529 440.749
1696.78139 439.263
1696.97752 430.961
1697.17367 423.298
1697.36984 422.946
1697.56603 431.233
1697.76225 438.054
1697.95849 440.667
1698.15475 442.099
1698.35103 444.165
1698.54734 446.426
1698.74367 448.443
1698.94002 450.258
1699.1364 452.122
1699.3328 452.907
1699.52922 452.743
1699.72566 454.137
1699.92213 456.303
1700.11862 465.762
1700.31513 1252.88
1700.51166 25761.1
1700.70822 202840
1700.9048 405216
1701.1014 202843
1701.29803 25768.4
1701.49467 1264.86
1701.69134 482.074
1701.88804 477.526
1702.08475 479.355
1702.28149 481.034
1702.47825 481.335
1702.67504 481.161
1702.87184 484.226
1703.06867 488.177
1703.26553 488.66
1703.4624 488.876
1703.6593 493.342
1703.85622 497.378
1704.05316 497.369
1704.25013 495.781
1704.44712 494.634
1704.64413 494.497
1704.84116 493.848
1705.03822 492.361
1705.2353 500.456
1705.4324 521.568
1705.62953 522.351
1705.82668 501.288
1706.02385 487.802
1706.22104 483.088
1706.41826 482.22
1706.6155 482.565
1706.81276 496.64
1707.01005 521.444
1707.20736 739.793
1707.40469 7627.35
1707.60204 57379
1707.79942 114249
1707.99682 57361
1708.19424 7583.97
1708.39168 689.945
1708.58915 458.258
1708.78664 457.118
1708.98415 466.861
1709.18169 471.479
1709.37925 471.124
1709.57683 470.424
1709.77444 470.645
1709.97206 469.705
1710.16971 468.078
1710.36739 465.07
1710.56508 462.102
1710.7628 463.051
1710.96054 464.53
1711.15831 464.16
1711.3561 463.607
1711.55391 467.223
1711.75174 1013.2
1711.9496 18089.9
1712.14747 141491
1712.34538 282523
1712.5433 141490
1712.74125 18086.1
1712.93922 1007.05
1713.13721 458.712
1713.33523 453.4
1713.53327 452.384
1713.73133 449.835
1713.92941 446.788
1714.12752 441.186
1714.32565 433.759
1714.52381 437.937
1714.72198 443.283
1714.92018 445.836
1715.1184 445.307
1715.31665 443.348
1715.51492 443.761
1715.71321 443.168
1715.91152 437.102
1716.10986 430.17
1716.30822 434.78
1716.5066 439.021
1716.70501 439.28
1716.90344 441.539
1717.10189 449.624
1717.30036 475.974
1717.49886 505.783
1717.69738 479.965
1717.89592 467.748
1718.09449 462.32
1718.29308 443.156
1718.49169 457.359
1718.69033 635.059
1718.88898 839.469
1719.08767 633.75
1719.28637 468.197
1719.4851 551.149
1719.68385 673.741
1719.88262 547.896
1720.08142 437.308
1720.28023 422.304
1720.47908 546.846
1720.67794 4500.2
1720.87683 33113.8
1721.07574 66130.6
1721.27467 33911.9
1721.47363 4913.84
1721.67261 612.502
1721.87161 638.727
1722.07064 1193.29
1722.26969 1471.67
1722.46876 877.719
1722.66785 464.62
1722.86697 410.182
1723.06611 410.355
1723.26528 406.27
1723.46446 396.742
1723.66367 409.842
1723.86291 903.97
1724.06216 4443.72
1724.26144 8750.8
1724.46074 13090.2
1724.66007 70116.6
1724.85942 138844
1725.05879 69617.7
1725.25818 9203.93
1725.4576 2020.31
1725.65704 4010.15
1725.8565 4009.59
1726.05599 1746.58
1726.2555 542.689
1726.45503 394.146
1726.65459 390.801
1726.85416 389.188
1727.05377 386.403
1727.25339 385.888
1727.45304 386.279
1727.65271 442.296
1727.8524 2202.31
1728.05212 14921.7
1728.25186 29456.8
1728.45162 14915.4
1728.65141 2193.2
1728.85122 431.226
1729.05105 376.993
1729.25091 377.904
1729.45079 377.911
1729.65069 391.685
1729.85061 847.698
1730.05056 4482.77
1730.25053 11297.2
1730.45053 11251.1
1730.65054 4438.76
1730.85059 834.727
1731.05065 383.496
1731.25074 369.561
1731.45085 368.564
1731.65098 366.074
1731.85113 359.382
1732.05131 351.592
1732.25152 351.315
1732.45174 491.441
1732.65199 4886.24
1732.85226 36595.7
1733.05256 72829.7
1733.25288 36594.8
1733.45322 4888.99
1733.65358 500.177
1733.85397 358.524
1734.05438 356.365
1734.25481 355.625
1734.45527 407.003
1734.65575 2035.43
1734.85626 13809.8
1735.05678 27279.5
1735.25733 13859.4
1735.4579 2704.65
1735.6585 6742.37
1735.85912 21643.8
1736.05976 28215.3
1736.26043 12438.7
1736.46112 1796.69
1736.66183 382.975
1736.86256 337.485
1737.06332 340.229
1737.26411 341.602
1737.46491 341.329
1737.66574 392.166
1737.86659 2063.09
1738.06746 15631.2
1738.26836 48756.5
1738.46928 107314
1738.67023 149300
1738.87119 69042.5
1739.07219 8759.67
1739.2732 594.213
1739.47424 332.537
1739.6753 327.573
1739.87638 324.475
1740.07749 325.293
1740.27862 326.262
1740.47977 326.067
1740.68095 325.397
1740.88215 324.117
1741.08337 321.252
1741.28462 318.246
1741.48589 318.691
1741.68718 318.453
1741.8885 318.984
1742.08984 424.014
1742.2912 3712.53
1742.49258 27477.6
1742.69399 54637.4
1742.89543 27476
1743.09688 3709.54
1743.29836 419.688
1743.49986 313.332
1743.70139 311.556
1743.90294 310.572
1744.10451 311.604
1744.30611 604.668
1744.50773 9817.19
1744.70937 76593.4
1744.91103 154488
1745.11272 80611.5
1745.31443 11950
1745.51617 867.817
1745.71793 312.431
1745.91971 300.477
1746.12152 299.242
1746.32334 299.006
1746.5252 301.226
1746.72707 303.678
1746.92897 300.087
1747.13089 297.003
1747.33284 294.272
1747.53481 291.904
1747.7368 290.892
1747.93881 290.16
1748.14085 289.17
1748.34292 288.102
1748.545 286.983
1748.74711 285.713
1748.94924 284.371
1749.1514 283.235
1749.35358 282.479
1749.55578 298.314
1749.75801 820.333
1749.96025 4700.59
1750.16253 12392.1
1750.36482 32506.2
1750.56714 56649.1
1750.76948 28208.9
1750.97185 3763.74
1751.17424 383.091
1751.37665 280.159
1751.57909 284.766
1751.78155 276.643
1751.98403 269.483
1752.18654 282.801
1752.38907 773.743
1752.59162 4695.46
1752.7942 12083.1
1752.9968 12089.2
1753.19942 4698.38
1753.40207 769.011
1753.60474 274.904
1753.80743 258.305
1754.01015 257.14
1754.21289 256.144
1754.41565 255.066
1754.61844 254.269
1754.82125 256.186
1755.02409 265.631
1755.22694 272.622
1755.42983 260.396
1755.63273 250.409
1755.83566 247.957
1756.03861 246.74
1756.24158 245.824
1756.44458 245.975
1756.64761 251.005
1756.85065 256.471
1757.05372 250.654
1757.25681 253.599
1757.45993 262.501
1757.66307 250.727
1757.86623 239.192
1758.06942 235.857
1758.27263 234.405
1758.47586 233.118
1758.67912 231.832
1758.8824 230.702
1759.0857 229.63
1759.28903 228.559
1759.49238 227.472
1759.69575 226.41
1759.89915 225.527
1760.10257 224.577
1760.30602 223.224
1760.50948 222.603
1760.71298 224.995
1760.91649 232.977
1761.12003 236.879
1761.32359 226.156
1761.52718 217.901
1761.73079 215.688
1761.93442 214.883
1762.13808 215.79
1762.34176 221.58
1762.54546 226.773
1762.74919 222.09
1762.95294 223.369
1763.15671 224.048
1763.36051 214.831
1763.56433 207.705
1763.76818 204.933
1763.97205 203.365
1764.17594 202.873
1764.37985 283.779
1764.58379 2835.16
1764.78776 21994.1
1764.99174 66886.2
1765.19575 218334
1765.39979 397061
1765.60384 197479
1765.80792 25289.9
1766.01203 2904.08
1766.21616 7956.92
1766.42031 13637.9
1766.62448 6975.11
1766.82868 9535.99
1767.0329 68506.2
1767.23715 136770
1767.44142 68476.7
1767.64571 8721.14
1767.85003 455.726
1768.05437 307.198
1768.25873 1231.46
1768.46312 3263
1768.66753 5544.74
1768.87197 6441.07
1769.07642 2914.42
1769.28091 607.351
1769.48541 3266.83
1769.68994 24750
1769.89449 49303.1
1770.09907 24735.9
1770.30367 3244.75
1770.50829 285.687
1770.71294 208.009
1770.91761 189.404
1771.12231 173.156
1771.32703 167.451
1771.53177 163.586
1771.73653 165.442
1771.94132 281.315
1772.14614 1125.13
1772.35097 2092.32
1772.55583 1130.15
1772.76072 313.879
1772.96563 1141.53
1773.17056 7982.18
1773.37551 15804.2
1773.58049 7983.77
1773.7855 1162.22
1773.99052 240.187
1774.19557 196.239
1774.40065 185.661
1774.60574 167.151
1774.81086 157.68
1775.01601 156.939
1775.22118 150.898
1775.42637 149.958
1775.63159 158.384
1775.83683 178.135
1776.04209 215.669
1776.24738 275.283
1776.45269 496.736
1776.65802 763.717
1776.86338 455.933
1777.06876 199.716
1777.27417 402.521
1777.4796 2169.03
1777.68505 4196.95
1777.89053 2180.13
1778.09603 414.908
1778.30155 186.37
1778.5071 202.647
1778.71267 248.629
1778.91827 270.758
1779.12389 226.887
1779.32953 175.38
1779.5352 153.907
1779.74089 150.788
1779.94661 147.374
1780.15234 144.815
1780.35811 145.964
1780.56389 229.73
1780.7697 2840.09
1780.97554 21677.2
1781.18139 43219.1
1781.38727 21736.9
1781.59318 2903.9
1781.79911 348.879
1782.00506 317.298
1782.21104 222.765
1782.41704 157.704
1782.62306 218.29
1782.82911 701.047
1783.03518 1331.25
1783.24128 897.761
1783.4474 321.071
1783.65354 163.768
1783.85971 154.972
1784.0659 178.835
1784.27211 215.116
1784.47835 257.909
1784.68461 381.163
1784.8909 523.319
1785.09721 656.666
1785.30354 621.142
1785.5099 368.218
1785.71628 282.508
1785.92269 287.274
1786.12912 224.093
1786.33557 180.495
1786.54205 166.19
1786.74855 168.355
1786.95507 232.481
1787.16162 304.626
1787.36819 798.816
1787.57479 18165.1
1787.78141 144041
1787.98805 287927
1788.19472 144056
1788.40141 18146.8
1788.60813 750.064
1788.81487 270.888
1789.02163 301.326
1789.22842 263.754
1789.43523 182.458
1789.64207 142.373
1789.84893 138.198
1790.05581 146.413
1790.26272 189.476
1790.46965 242.922
1790.6766 244.235
1790.88358 254.362
1791.09058 223.903
1791.29761 221.166
1791.50466 231.709
1791.71173 204.585
1791.91883 216.327
1792.12596 242.742
1792.3331 253.158
1792.54027 260.036
1792.74747 283.919
1792.95468 229.098
1793.16193 280.248
1793.36919 488.501
1793.57648 547.974
1793.7838 441.519
1793.99113 386.644
1794.1985 269.578
1794.40588 182.368
1794.61329 168.836
1794.82073 179.801
1795.02818 254.481
1795.23566 349.427
1795.44317 271.033
1795.6507 184.428
1795.85825 217.135
1796.06583 317.631
1796.27343 318.575
1796.48106 233.436
1796.68871 269.288
1796.89638 405.055
1797.10408 371.773
1797.3118 233.478
1797.51955 173.124
1797.72732 173.755
1797.93511 245.178
1798.14293 321.764
1798.35077 239.478
1798.55864 164.703
1798.76653 745.064
1798.97444 19388
1799.18238 154099
1799.39034 308078
1799.59833 154258
1799.80634 19722
1800.01437 1075.17
1800.22243 488.971
1800.43051 553.029
1800.63862 456.934
1800.84675 481.979
1801.0549 648.194
1801.26308 639.916
1801.47128 478.034
1801.67951 417.175
1801.88776 378.692
1802.09603 455.148
1802.30433 533.496
1802.51265 499.837
1802.721 534.309
1802.92937 428.346
1803.13777 323.811
1803.34619 358.18
1803.55463 418.501
1803.7631 398.247
1803.97159 390.966
1804.1801 281.476
1804.38864 243.989
1804.59721 278.707
1804.80579 227.366
1805.01441 175.571
1805.22304 189.108
1805.4317 320.237
1805.64039 530.99
1805.84909 593.003
1806.05783 705.438
1806.26658 2155.29
1806.47536 13397.7
1806.68417 42657.2
1806.893 55192.9
1807.10185 24105.4
1807.31073 3373.11
1807.51963 683.682
1807.72856 530.596
1807.93751 328.438
1808.14648 208.516
1808.35548 244.763
1808.5645 341.758
1808.77355 409.424
1808.98262 501.865
1809.19171 385.269
1809.40083 259.397
1809.60997 238.193
1809.81914 225.809
1810.02833 265.197
1810.23755 423.455
1810.44679 664.242
1810.65605 716.437
1810.86534 756.14
1811.07465 1025.1
1811.28399 6591.56
1811.49335 50750.6
1811.70273 129454
1811.91214 122117
1812.12158 44407.8
1812.33103 5527.6
1812.54051 798.778
1812.75002 941.383
1812.95955 948.374
1813.16911 631.525
1813.37868 467.001
1813.58829 494.381
1813.79791 390.964
1814.00756 254.536
1814.21724 208.092
1814.42694 214.68
1814.63666 286.52
1814.84641 481.275
1815.05618 662.777
1815.26598 711.9
1815.4758 921.667
1815.68565 1041.75
1815.89552 825.009
1816.10541 677.888
1816.31533 714.12
1816.52527 561.273
1816.73524 504.062
1816.94523 658.708
1817.15524 647.902
1817.36528 489.005
1817.57535 324.866
1817.78543 264.78
1817.99555 314.122
1818.20568 510.711
1818.41584 828.502
1818.62603 969.382
1818.83624 813.857
1819.04647 503.307
1819.25673 357.546
1819.46701 410.155
1819.67732 567.805
1819.88765 745.672
1820.098 991.778
1820.30838 1246.04
1820.51879 1378.77
1820.72922 2353.77
1820.93967 9751.19
1821.15014 18273.6
1821.36065 9609.85
1821.57117 2124.82
1821.78172 1064.04
1821.9923 1118.05
1822.20289 1123.58
1822.41352 974.587
1822.62416 954.949
1822.83483 905.105
1823.04553 601.178
1823.25625 366.796
1823.467 294.691
1823.67776 264.36
1823.88856 257.214
1824.09938 267.222
1824.31022 280.777
1824.52108 320.967
1824.73197 535.726
1824.94289 2355.25
1825.15383 15176.3
1825.36479 38016.8
1825.57578 35905
1825.78679 13445.7
1825.99783 2473.62
1826.20889 1381.51
1826.41998 1425.74
1826.63109 1265.92
1826.84222 983.951
1827.05338 758.757
1827.26456 610.791
1827.47577 538.865
1827.68701 577.841
1827.89826 684.964
1828.10954 931.434
1828.32085 1162.08
1828.53218 1139.05
1828.74353 1217.24
1828.95491 1349.16
1829.16631 1277.99
1829.37774 1181.16
1829.58919 1031.87
1829.80067 662.102
