# Obtained using Skycalc tool from ESO webpage
# Not including telescope emissivity
Wave[nm] Radiance[photons/s/m**2/micron/arsec**2]
1400 10.3703
1400.28003 14.2001
1400.56011 2.1837
1400.84025 6.52237
1401.12045 21.2615
1401.4007 2.27529
1401.68101 12.3205
1401.96137 437.648
1402.24179 51844.1
1402.52227 145.812
1402.8028 84.307
1403.08339 43.7465
1403.36404 97.8598
1403.64474 91.1438
1403.92549 63.2439
1404.20631 26.7886
1404.48718 316.461
1404.7681 21.2314
1405.04908 2.07288
1405.33012 8.62383
1405.61121 108.058
1405.89237 6086.98
1406.17357 102.463
1406.45483 128.633
1406.73615 16.9469
1407.01753 1021.7
1407.29896 5.29123
1407.58045 28.3913
1407.86199 127.896
1408.14359 130.661
1408.42525 63.7022
1408.70696 48687.7
1408.98873 20.7097
1409.27056 12.7393
1409.55244 2.32224
1409.83438 37.7257
1410.11638 2427.05
1410.39843 20899.5
1410.68053 7636.6
1410.9627 104.532
1411.24492 66.4707
1411.5272 74.7892
1411.80953 150.304
1412.09192 86.3717
1412.37437 29.7032
1412.65687 129.772
1412.93943 196.192
1413.22205 168.185
1413.50472 94488.4
1413.78745 89.3301
1414.07023 40.6271
1414.35308 43.9434
1414.63598 13.8423
1414.91893 36.9539
1415.20194 70.4841
1415.48501 58.1616
1415.76814 114.736
1416.05132 155.546
1416.33456 71261.2
1416.61785 121.84
1416.9012 117.341
1417.18461 140.018
1417.46808 103.826
1417.7516 84.8651
1418.03518 94.8438
1418.31881 176.997
1418.60251 113269
1418.88626 33.0304
1419.17006 3395.66
1419.45392 1910.9
1419.73784 69.809
1420.02182 61.4221
1420.30585 165.817
1420.58994 51.6445
1420.87409 126.383
1421.15829 113.595
1421.44255 137.335
1421.72687 142.202
1422.01124 179.984
1422.29567 169.708
1422.58016 4580.4
1422.8647 116.251
1423.14931 81.5564
1423.43396 60.5943
1423.71868 116.647
1424.00345 15.4728
1424.28828 179.546
1424.57317 195.085
1424.85811 151.222
1425.14311 176.093
1425.42817 116.615
1425.71328 64.5815
1425.99845 93.3154
1426.28368 192.658
1426.56897 8654.24
1426.85431 166.83
1427.13971 142.818
1427.42516 114.9
1427.71068 77.7129
1427.99625 154.319
1428.28188 65.9197
1428.56756 88.03
1428.8533 106.692
1429.1391 8843.56
1429.42496 8813.67
1429.71087 162.621
1429.99684 100.171
1430.28287 230.71
1430.56896 235.445
1430.8551 178.178
1431.1413 65.8979
1431.42756 118.661
1431.71387 55.2543
1432.00024 92.3187
1432.28667 80.4543
1432.57316 27.2077
1432.8597 137.678
1433.1463 178.106
1433.43296 211.68
1433.71967 129.563
1434.00645 148.693
1434.29328 40789.5
1434.58016 100.436
1434.86711 184.381
1435.15411 620.524
1435.44117 190.591
1435.72829 156152
1436.01546 98.568
1436.30269 139.037
1436.58998 184.015
1436.87733 5567.3
1437.16473 94.156
1437.45219 34208.2
1437.73971 33.0763
1438.02729 311.755
1438.31492 208.748
1438.60262 159.566
1438.89036 226.007
1439.17817 1761.68
1439.46604 62.0532
1439.75396 6080.54
1440.04194 186.746
1440.32997 4100.79
1440.61807 164.579
1440.90622 172.537
1441.19443 190.898
1441.4827 44.0226
1441.77103 187.468
1442.05941 633.08
1442.34785 154.791
1442.63635 1916.78
1442.9249 33.8076
1443.21352 195.536
1443.50219 241.397
1443.79092 227.429
1444.07971 184.586
1444.36855 137.355
1444.65745 229.02
1444.94641 233.116
1445.23543 146.052
1445.52451 46.6568
1445.81364 20.6193
1446.10283 300.399
1446.39208 230.191
1446.68139 260.648
1446.97075 17291.9
1447.26018 155.626
1447.54966 247.102
1447.8392 293.906
1448.12879 214.996
1448.41845 279.13
1448.70816 228.266
1448.99793 273.384
1449.28776 292.697
1449.57765 264.303
1449.86759 198.693
1450.15759 379.279
1450.44766 230.166
1450.73777 57.4631
1451.02795 94.8276
1451.31819 184.583
1451.60848 314.147
1451.89883 320609
1452.18924 146.001
1452.4797 2191.59
1452.77023 308.455
1453.06081 186.424
1453.35145 319.704
1453.64215 335.31
1453.93291 340.414
1454.22373 336.15
1454.5146 279.661
1454.80553 329.912
1455.09652 299.021
1455.38757 121.451
1455.67868 326.493
1455.96984 341.891
1456.26107 129111
1456.55235 412.737
1456.84369 313.547
1457.13508 361.622
1457.42654 324.959
1457.71805 223.724
1458.00963 379.398
1458.30126 393.87
1458.59295 348.615
1458.8847 391.533
1459.1765 374.94
1459.46837 382.69
1459.76029 358.887
1460.05227 352.515
1460.34431 126908
1460.63641 149382
1460.92856 380.547
1461.22078 232.736
1461.51305 337.076
1461.80538 323.479
1462.09777 369.729
1462.39022 384.694
1462.68273 377.981
1462.9753 263.351
1463.26792 136.793
1463.5606 488.315
1463.85335 504.27
1464.14615 382.535
1464.439 667.308
1464.73192 385.76
1465.0249 378.773
1465.31793 102.907
1465.61102 644.1
1465.90418 562.243
1466.19739 292.162
1466.49065 70949.7
1466.78398 257.579
1467.07737 362.874
1467.37081 338.556
1467.66432 287.091
1467.95788 530.126
1468.2515 351.852
1468.54518 332.992
1468.83892 372.864
1469.13271 280.146
1469.42657 275.959
1469.72049 70406.3
1470.01446 100595
1470.30849 9014.23
1470.60258 122.528
1470.89673 162.463
1471.19094 325.231
1471.48521 2281
1471.77953 275.533
1472.07392 328.461
1472.36836 101.41
1472.66287 217.915
1472.95743 351.648
1473.25205 242.492
1473.54673 318.395
1473.84147 15822.5
1474.13627 16804.6
1474.43112 369.1
1474.72604 334.965
1475.02101 369.416
1475.31605 356.696
1475.61114 17796.3
1475.90629 136.797
1476.2015 326.678
1476.49677 345.505
1476.7921 252.009
1477.08749 21140
1477.38294 22596.3
1477.67844 267.441
1477.97401 171.765
1478.26963 102704
1478.56532 353.659
1478.86106 300.387
1479.15686 335.49
1479.45272 179.623
1479.74864 324.812
1480.04462 92648.1
1480.34066 212.933
1480.63676 40305.5
1480.93291 337.156
1481.22913 347.587
1481.52541 305.421
1481.82174 185.692
1482.11813 214.121
1482.41459 336.542
1482.7111 330.069
1483.00767 297.806
1483.3043 215423
1483.60099 333.218
1483.89774 338.227
1484.19455 314.377
1484.49142 204.652
1484.78835 354.861
1485.08534 401.938
1485.38238 362.264
1485.67949 375.421
1485.97666 416.206
1486.27388 464.345
1486.57117 79731.7
1486.86851 429.997
1487.16591 411.225
1487.46338 484.803
1487.7609 576.464
1488.05848 440.173
1488.35612 516.349
1488.65382 299306
1488.95158 623.71
1489.2494 700.474
1489.54728 534.167
1489.84522 612.786
1490.14322 759.8
1490.44128 794.351
1490.7394 17609.2
1491.03757 17557.9
1491.33581 608.564
1491.63411 738.506
1491.93247 811.723
1492.23088 847.131
1492.52936 863.542
1492.82789 831.714
1493.12649 103016
1493.42514 957.454
1493.72386 1018.54
1494.02263 912.484
1494.32147 996.41
1494.62036 1078.34
1494.91932 946.611
1495.21833 982.158
1495.5174 1116.67
1495.81654 965.688
1496.11573 1179.69
1496.41498 943.918
1496.7143 1141.3
1497.01367 1244.11
1497.3131 1247.25
1497.61259 1163.05
1497.91215 1189.82
1498.21176 1085.69
1498.51143 1212.96
1498.81116 1264.73
1499.11096 1190.27
1499.41081 1259.07
1499.71072 1175.57
1500.01069 1292.89
1500.31072 1305.71
1500.61082 5720.94
1500.91097 1299.13
1501.21118 1292.2
1501.51145 1316.78
1501.81179 1174.41
1502.11218 1330.05
1502.41263 5476.91
1502.71314 5122.77
1503.01372 1322.41
1503.31435 1270.86
1503.61504 1264.15
1503.9158 1046.38
1504.21661 1331.62
1504.51748 1265.95
1504.81842 1141.87
1505.11941 1336.93
1505.42046 845496
1505.72158 1340.61
1506.02275 1394.5
1506.32399 25970.7
1506.62528 1406.45
1506.92664 265146
1507.22805 1326.27
1507.52953 1418.49
1507.83106 1414.53
1508.13266 10329.7
1508.43432 1290.07
1508.73603 45090.6
1509.03781 1309.62
1509.33965 1445.22
1509.64155 1453.72
1509.94351 1460.1
1510.24552 1413.54
1510.5476 1457.06
1510.84974 4484.15
1511.15194 1449.65
1511.4542 23536.6
1511.75653 1480.28
1512.05891 1494.9
1512.36135 1432.07
1512.66385 1500.02
1512.96641 1444.35
1513.26904 1946.05
1513.57172 1867.43
1513.87447 2232.15
1514.17727 1466.42
1514.48014 6428.83
1514.78306 1489.49
1515.08605 3107.72
1515.3891 1544.58
1515.69221 1541.93
1515.99538 1556.49
1516.2986 1474.41
1516.60189 1561.1
1516.90525 1500.93
1517.20866 1553.15
1517.51213 1501.55
1517.81566 1753.73
1518.11926 1590.86
1518.42291 2386.21
1518.72662 164936
1519.0304 1528.46
1519.33424 1562.81
1519.63813 1601.34
1519.94209 1607.54
1520.24611 1617.16
1520.55019 1594.32
1520.85433 1635.04
1521.15853 1632.64
1521.46279 1618.23
1521.76712 1567.75
1522.0715 1596.46
1522.37595 1615.3
1522.68045 1640.58
1522.98502 1629.24
1523.28965 1545.73
1523.59433 1530.2
1523.89908 1531.04
1524.20389 559378
1524.50876 1467.47
1524.8137 1493.48
1525.11869 1471.12
1525.42374 1464.47
1525.72886 1439.55
1526.03404 1446.67
1526.33927 1427.5
1526.64457 1401.28
1526.94993 1552.28
1527.25535 1381.41
1527.56083 1394.26
1527.86638 1387.72
1528.17198 1491.61
1528.47764 1473.93
1528.78337 201505
1529.08916 1338.18
1529.39501 1326.58
1529.70092 1300.38
1530.00689 1303.3
1530.31292 1277.49
1530.61901 1280.12
1530.92517 1267.43
1531.23138 1234.98
1531.53766 1240.93
1531.844 1233.19
1532.1504 1222.83
1532.45686 1209.44
1532.76338 1197.06
1533.06996 287241
1533.37661 288185
1533.68331 1161.29
1533.99008 1144.53
1534.29691 1137.24
1534.6038 1131.55
1534.91075 1111.52
1535.21776 1095.25
1535.52484 1091.77
1535.83197 1077.34
1536.13917 1068.11
1536.44643 1060.51
1536.75375 1049.74
1537.06113 1034.83
1537.36857 1034.26
1537.67608 1024.79
1537.98364 1013.06
1538.29127 1000.03
1538.59896 1028.15
1538.90671 980.094
1539.21452 985.791
1539.5224 153281
1539.83033 942.911
1540.13833 924.577
1540.44639 1312.94
1540.75451 901.163
1541.06269 1147.63
1541.37093 888.774
1541.67924 867.013
1541.9876 856.261
1542.29603 861.512
1542.60452 849.455
1542.91307 3267.65
1543.22169 367156
1543.53036 807.345
1543.8391 2213.38
1544.1479 780.719
1544.45676 779.445
1544.76568 778.527
1545.07467 773.962
1545.38371 769.605
1545.69282 765.021
1546.00199 760.692
1546.31122 12287.5
1546.62051 752.255
1546.92987 748.606
1547.23929 746.881
1547.54876 7078.08
1547.8583 735.015
1548.16791 731.596
1548.47757 727.283
1548.7873 722.599
1549.09709 718.477
1549.40694 714.131
1549.71685 709.079
1550.02682 43097.1
1550.33686 701.274
1550.64696 696.302
1550.95712 79439.7
1551.26734 687.761
1551.57763 683.206
1551.88797 22174.8
1552.19838 672.726
1552.50885 670.406
1552.81938 666.278
1553.12998 661.659
1553.44064 657.648
1553.75136 653.168
1554.06214 168867
1554.37298 643.518
1554.68389 117774
1554.99485 635.71
1555.30588 631.335
1555.61698 627.091
1555.92813 622.683
1556.23935 618.73
1556.55063 614.579
1556.86197 27621.5
1557.17337 27612.3
1557.48484 1641.91
1557.79637 596.432
1558.10796 591.736
1558.41961 587.623
1558.73132 582.713
1559.0431 578.822
1559.35494 574.287
1559.66684 233028
1559.97881 565.431
1560.29084 2269.66
1560.60292 556.92
1560.91508 552.044
1561.22729 548.027
1561.53957 543.793
1561.85191 539.402
1562.16431 533.882
1562.47677 529.709
1562.7893 3081.35
1563.10189 125930
1563.41454 517.427
1563.72725 512.585
1564.04003 508.477
1564.35287 503.08
1564.66577 499.818
1564.97874 495.431
1565.29176 490.747
1565.60485 321825
1565.918 29325.4
1566.23122 477.428
1566.5445 981.329
1566.85784 468.333
1567.17124 1019.46
1567.48471 466.846
1567.79823 1433.32
1568.11183 467.699
1568.42548 5841.92
1568.7392 466.54
1569.05297 465.297
1569.36682 2023.76
1569.68072 2330.26
1569.99469 459.791
1570.30872 93042.4
1570.62281 3152.61
1570.93697 451.166
1571.25119 6417.14
1571.56547 440.884
1571.87981 4324.72
1572.19422 446.966
1572.50869 5021.08
1572.82322 462.462
1573.13782 453.429
1573.45248 5162.25
1573.7672 6582.44
1574.08199 5322.4
1574.39683 464.419
1574.71175 6320.87
1575.02672 7854.48
1575.34176 507.248
1575.65686 478.183
1575.97202 14518.9
1576.28724 483.295
1576.60253 8197.3
1576.91789 5119.56
1577.2333 463.902
1577.54878 5207.09
1577.86432 8252.76
1578.17992 15403.1
1578.49559 487.34
1578.81132 2806.57
1579.12712 465.737
1579.44297 7395.63
1579.75889 494.009
1580.07488 472.478
1580.39092 25331.2
1580.70703 34361.6
1581.02321 17886.2
1581.33944 938.115
1581.65574 499.745
1581.97211 489.029
1582.28853 1919.34
1582.60502 493.857
1582.92157 82009.3
1583.23819 756956
1583.55487 500.226
1583.87161 3698.88
1584.18842 25113
1584.50529 2604.93
1584.82222 269825
1585.13922 508.785
1585.45628 4404.37
1585.7734 3391.04
1586.09058 5432.93
1586.40783 4990.07
1586.72515 4214.33
1587.04252 88027.9
1587.35996 3472.16
1587.67747 518.21
1587.99504 518.604
1588.31267 3604.68
1588.63036 3056.93
1588.94812 3757.03
1589.26594 522.2
1589.58382 26436
1589.90177 3072.96
1590.21979 2410.85
1590.53786 525.371
1590.856 526.03
1591.1742 1977.54
1591.49247 2046.19
1591.8108 3284.5
1592.12919 529.29
1592.44765 2644.05
1592.76617 1379.22
1593.08476 6952.53
1593.40341 552.672
1593.72212 533.302
1594.0409 533.964
1594.35974 982.872
1594.67864 935.138
1594.99761 536.153
1595.31664 1624.1
1595.63573 537.908
1595.95489 538.571
1596.27412 538.472
1596.5934 750.257
1596.91275 540.497
1597.23217 165332
1597.55165 1631.94
1597.87119 541.432
1598.1908 541.335
1598.51047 1367.97
1598.8302 540.59
1599.15 536.359
1599.46986 542.441
1599.78979 545.617
1600.10978 547.483
1600.42983 549.124
1600.74995 549.883
1601.07013 549.955
1601.39038 549.829
1601.71069 592.294
1602.03106 558.561
1602.3515 734.103
1602.672 566.283
1602.99257 551303
1603.3132 573.991
1603.63389 580.242
1603.95465 588.781
1604.27547 878.455
1604.59636 610.092
1604.91731 634.145
1605.23833 635.35
1605.55941 880.564
1605.88055 894.408
1606.20176 650.708
1606.52303 644.694
1606.84437 642.086
1607.16577 667.703
1607.48724 658.702
1607.80877 42202.3
1608.13036 166176
1608.45202 692.419
1608.77374 659.547
1609.09553 662.333
1609.41738 696.137
1609.73929 687.991
1610.06127 680.525
1610.38332 696.072
1610.70543 722.761
1611.0276 702.47
1611.34984 732.817
1611.67214 725.739
1611.99451 726.266
1612.31694 758.873
1612.63943 742.18
1612.96199 583782
1613.28462 774.726
1613.60731 766.153
1613.93006 786.053
1614.25288 782.807
1614.57576 788.617
1614.89871 802.285
1615.22172 799.413
1615.5448 812.364
1615.86794 811.474
1616.19115 819.232
1616.51442 826.379
1616.83775 828.621
1617.16115 838.371
1617.48462 840.96
1617.80815 848.802
1618.13174 851.888
1618.4554 859.684
1618.77912 861.956
1619.10291 869.323
1619.42676 159805
1619.75068 899.302
1620.07466 885.652
1620.39871 891.857
1620.72282 924.855
1621.047 930.316
1621.37124 907.026
1621.69555 912.072
1622.01992 926.295
1622.34436 928.199
1622.66886 928.724
1622.99342 1001.16
1623.31805 981.799
1623.64275 385925
1623.96751 947.581
1624.29234 954.552
1624.61723 1441.28
1624.94218 965.979
1625.26721 1260.54
1625.59229 975.424
1625.91744 978.514
1626.24266 985.567
1626.56794 991.427
1626.89329 2354.05
1627.2187 2354.45
1627.54417 1007.19
1627.86971 2574.67
1628.19532 1004.2
1628.52099 1000.31
1628.84673 993.259
1629.17253 986.235
1629.4984 978.611
1629.82433 971.447
1630.15033 12970.3
1630.47639 943.685
1630.80252 944.17
1631.12871 939.7
1631.45497 7417.75
1631.78129 86576.3
1632.10768 915.497
1632.43414 906.686
1632.76066 894.399
1633.08724 883.83
1633.41389 884.281
1633.74061 875.551
1634.06739 42172.6
1634.39423 860.436
1634.72115 854.412
1635.04812 185115
1635.37516 814.849
1635.70227 833.023
1636.02945 21562.5
1636.35668 815.9
1636.68399 804.408
1637.01136 802.966
1637.33879 794.29
1637.66629 752.871
1637.99386 769.621
1638.32149 768.136
1638.64919 759.511
1638.97695 109016
1639.30478 742.835
1639.63267 731.116
1639.96063 726.923
1640.28866 677.1
1640.61675 711.922
1640.9449 702.586
1641.27313 694.169
1641.60141 50285
1641.92977 677.808
1642.25818 669.569
1642.58667 663.728
1642.91522 612.267
1643.24384 645.218
1643.57252 639.117
1643.90126 631.74
1644.23008 207785
1644.55896 3747.42
1644.8879 31310.2
1645.21691 602.261
1645.54599 543.05
1645.87513 587.937
1646.20434 579.826
1646.53361 571.792
1646.86295 565.742
1647.19236 555.461
1647.52183 33629.3
1647.85137 118294
1648.18097 501.269
1648.51064 518.952
1648.84037 513.498
1649.17017 505.278
1649.50004 500.74
1649.82997 491.331
1650.15997 248474
1650.49004 477.126
1650.82017 437.659
1651.15037 457.166
1651.48063 452.454
1651.81096 447.872
1652.14135 436.453
1652.47181 430.936
1652.80234 424.743
1653.13294 415.574
1653.4636 405.942
1653.79432 376.779
1654.12511 392.87
1654.45597 385.176
1654.7869 376.647
1655.11789 367.629
1655.44894 88945.1
1655.78007 351.604
1656.11125 345.107
1656.44251 327.552
1656.77383 329.549
1657.10522 321.18
1657.43667 313.948
1657.76819 305.968
1658.09978 298.531
1658.43143 5377.14
1658.76315 5378.94
1659.09494 274.771
1659.42679 263.201
1659.75871 258.722
1660.0907 253.279
1660.42275 254.153
1660.75486 254.656
1661.08705 18891.7
1661.4193 254.399
1661.75162 255.85
1662.084 256.322
1662.41645 252.659
1662.74897 257.396
1663.08155 258.15
1663.4142 257.783
1663.74692 259.144
1664.0797 259.683
1664.41255 260.225
1664.74546 260.807
1665.07845 260.8
1665.41149 240.491
1665.74461 239.388
1666.07779 237.241
1666.41104 253.718
1666.74436 256.625
1667.07774 259.801
1667.41119 263.006
1667.7447 264.969
1668.07829 264.649
1668.41193 265.272
1668.74565 293.013
1669.07943 715241
1669.41328 267.408
1669.7472 268.299
1670.08118 269.209
1670.41523 21271.5
1670.74935 234155
1671.08353 270.638
1671.41778 268.125
1671.7521 271.481
1672.08648 272.316
1672.42093 8519.29
1672.75545 273.35
1673.09003 70912.5
1673.42469 10979.7
1673.7594 274.7
1674.09419 275.491
1674.42904 267.408
1674.76396 276.58
1675.09895 276.868
1675.434 5208.22
1675.76912 2291.14
1676.10431 278.495
1676.43956 23275
1676.77488 279.099
1677.11027 279.993
1677.44573 272.214
1677.78125 278.152
1678.11684 281.865
1678.4525 281.399
1678.78822 282.835
1679.12401 283.487
1679.45987 1161.87
1679.7958 284.344
1680.13179 5931.77
1680.46785 285.542
1680.80398 277.328
1681.14017 286.265
1681.47643 286.327
1681.81276 287.433
1682.14916 289.324
1682.48562 292.513
1682.82215 295.869
1683.15875 298.784
1683.49542 302.239
1683.83215 303.729
1684.16895 119103
1684.50582 312.027
1684.84275 1465.5
1685.17975 318.061
1685.51682 321.449
1685.85396 324.722
1686.19116 328.112
1686.52844 331.186
1686.86578 334.657
1687.20318 326.256
1687.54066 340.67
1687.8782 343.853
1688.21581 347.443
1688.55349 351.072
1688.89123 561.306
1689.22904 565.462
1689.56692 401.832
1689.90487 363.394
1690.24288 472698
1690.58097 792.167
1690.91912 710.687
1691.25733 376.185
1691.59562 376.589
1691.93397 382.174
1692.27239 384.056
1692.61088 389.299
1692.94944 393.318
1693.28806 396.14
1693.62675 399.571
1693.96551 393.977
1694.30434 404.779
1694.64323 407.755
1694.9822 410.943
1695.32123 415.963
1695.66032 179839
1695.99949 429.112
1696.33872 425.748
1696.67803 447.821
1697.01739 427.952
1697.35683 418.941
1697.69634 438.841
1698.03591 441.105
1698.37555 444.577
1698.71526 448.038
1699.05504 451.507
1699.39488 454.466
1699.7348 453.195
1700.07478 458.145
1700.41483 463.435
1700.75494 498487
1701.09513 460.074
1701.43538 474.52
1701.7757 476.168
1702.11609 479.949
1702.45655 482.236
1702.79707 480.912
1703.13767 489.849
1703.47833 487.808
1703.81906 498.632
1704.15986 496.352
1704.50072 494.339
1704.84166 494.488
1705.18266 487.105
1705.52373 543.684
1705.86487 489.82
1706.20608 481.475
1706.54735 483.315
1706.88869 477.1
1707.23011 526.846
1707.57159 519.036
1707.91314 140443
1708.25475 473.911
1708.59644 455.242
1708.93819 463.399
1709.28001 472.666
1709.6219 469.534
1709.96386 469.601
1710.30589 466.768
1710.64798 460.835
1710.99015 465.505
1711.33238 463.507
1711.67468 462.632
1712.01705 460.159
1712.35949 347484
1712.70199 456.859
1713.04457 455.385
1713.38721 452.961
1713.72992 450.772
1714.0727 446.778
1714.41555 431.644
1714.75847 442.277
1715.10146 446.709
1715.44451 442.37
1715.78763 443.706
1716.13083 427.209
1716.47409 439.87
1716.81741 438.451
1717.16081 445.597
1717.50428 521.146
1717.84781 458.537
1718.19142 456.027
1718.53509 430.38
1718.87883 934.172
1719.22264 427.309
1719.56652 731.593
1719.91047 422.477
1720.25449 421.923
1720.59857 418.025
1720.94273 79438.9
1721.28695 2771.48
1721.63124 407.457
1721.9756 413.036
1722.32003 1921.52
1722.66453 407.951
1723.0091 410.165
1723.35373 406.718
1723.69844 389.397
1724.04321 402.202
1724.38805 10340.2
1724.73297 85948.2
1725.07795 85153.7
1725.423 396.124
1725.76812 6324.14
1726.11331 385.58
1726.45856 391.936
1726.80389 390.676
1727.14928 385.25
1727.49475 385.282
1727.84028 385.492
1728.18588 36156.7
1728.53156 376.176
1728.8773 373.547
1729.22311 378.447
1729.56899 377.578
1729.91493 376.482
1730.26095 18257.4
1730.60704 370.533
1730.9532 368.595
1731.29942 369.784
1731.64571 367.082
1731.99208 350.571
1732.33851 346.417
1732.68501 362.807
1733.03159 89521.5
1733.37823 359.99
1733.72494 358.009
1734.07172 356.914
1734.41857 354.192
1734.76548 352.617
1735.11247 33500.9
1735.45953 348.042
1735.80666 35804.2
1736.15385 5216.07
1736.50112 344.034
1736.84845 333.954
1737.19586 342.273
1737.54333 340.548
1737.89087 337.761
1738.23849 33232.9
1738.58617 197932
1738.93392 333.545
1739.28174 332.304
1739.62963 328.879
1739.97759 323.541
1740.32563 326.426
1740.67373 325.612
1741.02189 323.419
1741.37013 317.008
1741.71844 318.134
1742.06682 318.212
1742.41527 317.348
1742.76379 67145.6
1743.11237 314.124
1743.46103 312.787
1743.80976 311.124
1744.15856 309.217
1744.50742 305.861
1744.85636 192643
1745.20537 304.316
1745.55444 302.597
1745.90359 300.775
1746.2528 298.549
1746.60209 305.459
1746.95144 298.026
1747.30087 293.922
1747.65036 290.911
1747.99993 289.949
1748.34956 288.076
1748.69927 286.121
1749.04904 283.606
1749.39889 282.254
1749.7488 280.279
1750.09879 10889.8
1750.44884 68974.7
1750.79897 274.892
1751.14916 273.03
1751.49943 288.594
1751.84976 269.477
1752.20017 267.196
1752.55064 265.339
1752.90119 19657.6
1753.2518 261.351
1753.60249 259.44
1753.95324 257.283
1754.30407 255.734
1754.65497 253.702
1755.00593 273.789
1755.35697 257.907
1755.70807 248.606
1756.05925 246.547
1756.4105 245.065
1756.76182 259.755
1757.1132 242.669
1757.46466 268.004
1757.81619 238.293
1758.16779 235.033
1758.51946 232.785
1758.87119 230.772
1759.223 228.916
1759.57488 227.035
1759.92683 225.682
1760.27885 223.057
1760.63095 221.979
1760.98311 244.073
1761.33534 218.867
1761.68764 215.802
1762.04001 214.206
1762.39246 230.886
1762.74497 212.598
1763.09756 230.813
1763.45021 208.621
1763.80294 204.329
1764.15573 202.262
1764.5086 201.686
1764.86153 51936
1765.21454 485261
1765.56762 234.644
1765.92077 998.128
1766.27399 1423.28
1766.62728 16066.3
1766.98064 190.929
1767.33407 168217
1767.68757 185.478
1768.04115 183.339
1768.39479 2448.53
1768.7485 2431.48
1769.10229 6615.4
1769.45614 181.846
1769.81007 60627.2
1770.16407 173.664
1770.51814 179.507
1770.87228 206.977
1771.22649 170.891
1771.58077 162.25
1771.93512 160.666
1772.28954 2534.6
1772.64403 165.917
1772.9986 161.007
1773.35323 19406.6
1773.70794 160.028
1774.06272 218.628
1774.41756 188.27
1774.77248 152.374
1775.12747 156.052
1775.48253 149.912
1775.83767 183.944
1776.19287 248.898
1776.54814 161.965
1776.90349 893.29
1777.25891 148.177
1777.61439 5124.17
1777.96995 157.571
1778.32558 186.395
1778.68128 271.746
1779.03705 225.135
1779.3929 157.564
1779.74881 152.908
1780.1048 142.645
1780.46085 145.829
1780.81698 153.233
1781.17318 53148.2
1781.52945 190.657
1781.88579 373.766
1782.2422 141.647
1782.59869 151.071
1782.95524 1474.47
1783.31187 407.467
1783.66857 149.284
1784.02534 154.721
1784.38218 218.779
1784.73909 483.934
1785.09607 484.485
1785.45313 555.811
1785.81026 314.814
1786.16745 215.108
1786.52472 159.217
1786.88206 165.497
1787.23947 325.441
1787.59696 174.19
1787.95451 354194
1788.31214 179.334
1788.66984 203.665
1789.02761 374.173
1789.38545 137.462
1789.74336 137.113
1790.10135 139.958
1790.4594 256.263
1790.81753 267.951
1791.17573 173.694
1791.534 252.135
1791.89234 228.65
1792.25076 246.791
1792.60924 299.15
1792.9678 172.032
1793.32643 654.309
1793.68513 262.831
1794.04391 405.432
1794.40275 181.663
1794.76167 165.473
1795.12065 334.911
1795.47971 232.716
1795.83885 165.511
1796.19805 407.577
1796.55733 161.6
1796.91667 519.139
1797.27609 175.104
1797.63558 165.571
1797.99515 332.283
1798.35478 192.886
1798.71449 141.839
1799.07427 145.997
1799.43412 378959
1799.79404 532.186
1800.15404 382.858
1800.5141 593.587
1800.87424 475.164
1801.23445 715.371
1801.59474 425.742
1801.95509 283.96
1802.31552 604.804
1802.67602 573.327
1803.03659 253.758
1803.39723 438.669
1803.75795 404.577
1804.11873 307.79
1804.47959 241.248
1804.84053 242.202
1805.20153 164.254
1805.56261 490.166
1805.92376 517.237
1806.28498 957.692
1806.64627 80131
1807.00763 230.722
1807.36907 645.722
1807.73058 515.76
1808.09216 185.67
1808.45382 329.041
1808.81555 340.543
1809.17735 470.826
1809.53922 247.517
1809.90116 210.031
1810.26318 391.161
1810.62527 747.379
1810.98743 859.508
1811.34966 695.425
1811.71197 112300
1812.07435 94380.7
1812.4368 418.132
1812.79932 1128.11
1813.16192 594.892
1813.52459 534.92
1813.88733 274.372
1814.25014 199.748
1814.61303 228.651
1814.97599 709.619
1815.33902 636.973
1815.70212 1193.23
1816.0653 519.614
1816.42855 762.301
1816.79187 421.593
1817.15526 834.37
1817.51873 275.315
1817.88227 251.098
1818.24588 487.146
1818.60957 1149.18
1818.97333 540.358
1819.33716 323.745
1819.70106 587.213
1820.06504 922.089
1820.42909 1382.49
1820.79321 1269.58
1821.15741 22161.7
1821.52167 1111.17
1821.88602 988.311
1822.25043 1170.14
1822.61492 955.818
1822.97947 685.487
1823.34411 308.251
1823.70881 247.933
1824.07359 263.706
1824.43844 284.817
1824.80337 635.761
1825.16836 30834.7
1825.53343 29945.2
1825.89858 847.722
1826.26379 1462.66
1826.62908 1333.77
1826.99444 754.12
1827.35988 523.713
1827.72539 608.809
1828.09097 867.176
1828.45662 1174.61
1828.82235 1329.51
1829.18815 1137.22
1829.55403 1218.93
1829.91998 1043.32
1830.286 1342.22
1830.65209 783.032
1831.01826 1303.69
1831.3845 1460.99
1831.75081 775.56
1832.1172 661.266
1832.48366 1156.1
1832.85019 1910.23
1833.2168 991.263
1833.58348 620.841
1833.95023 784.479
1834.31706 941.42
1834.68396 1188.65
1835.05093 1652.98
1835.41798 1354.73
1835.7851 1325.39
1836.15229 1576.87
1836.51956 1652.68
1836.8869 1131.15
1837.25431 1306.35
1837.6218 1669.99
1837.98936 1710.4
1838.357 1310.98
1838.72471 1110.05
1839.09249 873.672
1839.46034 1209.27
1839.82827 1744.54
1840.19627 1706.09
1840.56435 1527.51
1840.9325 1034.52
1841.30072 1347.74
1841.66902 1769.02
1842.03739 1823.6
1842.40584 1725.98
1842.77435 1424.52
1843.14294 853.079
1843.51161 11297.2
1843.88035 1183.05
1844.24916 1019.42
1844.61805 636.193
1844.98701 679.006
1845.35604 632.479
1845.72515 1086.52
1846.09433 36853.8
1846.46359 1688.14
1846.83292 1806.28
1847.20232 1956.22
1847.5718 1670.58
1847.94135 1886.86
1848.31098 1904.2
1848.68068 1931.94
1849.05045 1503.04
1849.4203 1425.12
1849.79022 961.174
1850.16021 1438
1850.53028 2088.09
1850.90042 1536.72
1851.27064 1178.52
1851.64093 689.639
1852.0113 779.696
1852.38174 967.304
1852.75225 26543.3
1853.12284 2009.25
1853.4935 1658.01
1853.86424 2038.63
1854.23505 2022.25
1854.60593 1436.82
1854.97689 1525.35
1855.34792 984.07
1855.71903 1947.42
1856.09021 2980.19
1856.46146 1964.69
1856.83279 2150.45
1857.2042 1754.62
1857.57567 1927.91
1857.94723 1150.32
1858.31885 893.083
1858.69055 17189.4
1859.06233 1255.77
1859.43418 1911.76
1859.8061 2294.36
1860.1781 2003.1
1860.55017 2230.65
1860.92232 2093.03
1861.29454 1533.68
1861.66684 846.734
1862.03921 873.349
1862.41166 775.087
1862.78417 1615.89
1863.15677 1600.92
1863.52944 993.145
1863.90218 1327.85
1864.275 2200.06
1864.64789 1963.49
1865.02086 1871.16
1865.3939 1427.56
1865.76701 971.916
1866.14021 744.761
1866.51347 1170.72
1866.88681 1259.47
1867.26023 2086.44
1867.63372 2470.1
1868.00728 2515.52
1868.38092 2299.27
1868.75463 1729.8
1869.12842 1848.65
1869.50228 2396.65
1869.87622 2239.56
1870.25023 2372.51
1870.62432 2261.76
1870.99848 2656.71
1871.37272 2564.97
1871.74703 2495.43
1872.12142 1790.95
1872.49588 1849.46
1872.87042 2513.53
1873.24503 2719.17
1873.61972 2539.18
1873.99448 2643.41
1874.36931 39565.4
1874.74422 1859.32
1875.11921 2160.02
1875.49427 2656.48
1875.86941 3257.4
1876.24462 2004.2
1876.61991 6419.33
1876.99527 2776.31
1877.3707 2642.84
1877.74622 1643.27
1878.1218 1830.32
1878.49747 3341.7
1878.8732 971.81
1879.24901 1153.85
1879.6249 19858.3
1880.00086 755.715
1880.3769 1705.95
1880.75302 2069.54
1881.1292 2390.44
1881.50547 1963.38
1881.88181 1643.82
1882.25822 786.198
1882.63471 2317.76
1883.01127 997.996
1883.38791 1213.91
1883.76463 3363.16
1884.14142 3036.31
1884.51829 2298.19
1884.89523 1434.31
1885.27224 1253.28
1885.64934 2402.76
1886.0265 1071.41
1886.40375 1130.6
1886.78106 2706.55
1887.15846 1843.94
1887.53593 1293.21
1887.91347 750.955
1888.29109 763.859
1888.66879 3573.44
1889.04656 1105.35
1889.42441 1289.44
1889.80233 2603.55
1890.18033 3224.2
1890.5584 2749.58
1890.93655 1672.99
1891.31478 10926.6
1891.69308 2169.19
1892.07145 2905.44
1892.44991 2669.42
1892.82843 2066.26
1893.20704 2023.03
1893.58572 2363.4
1893.96447 3027.61
1894.3433 1450.45
1894.72221 2270.63
1895.10119 1006.96
1895.48025 742.826
1895.85938 1371.75
1896.23859 1186.15
1896.61788 1680.57
1896.99724 1062.63
1897.37668 1759.22
1897.75619 3336.12
1898.13578 2538.08
1898.51545 2086.48
1898.89519 3288.38
1899.275 3114.2
1899.6549 3685.05
1900.03487 3259.92
1900.41491 3378.29
1900.79503 3299.43
1901.17523 2325.15
1901.5555 2162.54
1901.93585 1524.01
1902.31628 1936.11
1902.69678 3369.51
1903.07736 3836.51
1903.45801 2930.06
1903.83874 1955.8
1904.21954 1662.62
1904.60043 2993.33
1904.98138 12254.8
1905.36242 3938.41
1905.74353 3733.96
1906.12472 3405.68
1906.50598 3365.76
1906.88732 4031.21
1907.26873 3015.61
1907.65023 1607.99
1908.03179 1370.86
1908.41344 1284.14
1908.79516 2793.24
1909.17696 2333.47
1909.55883 1241.64
1909.94078 2079.9
1910.32281 2140.76
1910.70491 3505.21
1911.08709 2246.58
1911.46934 4036.51
1911.85168 3773.64
1912.23409 2373.21
1912.61657 2818.16
1912.99913 2609.62
1913.38177 4099.94
1913.76448 4327.87
1914.14728 3436.87
1914.53014 3392.47
1914.91309 3242.6
1915.29611 1687.39
1915.67921 1508.01
1916.06238 3691.91
1916.44563 3934.84
1916.82896 3303.42
1917.21236 2777.25
1917.59584 1032.82
1917.9794 844.208
1918.36304 907.576
1918.74675 1072.11
1919.13053 1683.72
1919.5144 23861.3
1919.89834 4604.77
1920.28236 3948.67
1920.66645 4689.05
1921.05062 4536.68
1921.43487 2862.08
1921.8192 2400.82
1922.2036 1244.19
1922.58808 961.085
1922.97264 1329.42
1923.35727 1034.24
1923.74198 2948.55
1924.12677 4761.31
1924.51163 3927.23
1924.89657 131315
1925.28159 5264.37
1925.66668 692.372
1926.05185 2315.56
1926.4371 1187.68
1926.82243 3459.43
1927.20783 4719.91
1927.59331 3017.16
1927.97887 1603.8
1928.3645 3390.27
1928.75022 4705.23
1929.136 1735.92
1929.52187 1226.74
1929.90781 1380.56
1930.29383 4446.58
1930.67993 2394.59
1931.06611 4353.42
1931.45236 2855.13
1931.83869 3292.15
1932.22509 1232
1932.61158 1360.6
1932.99814 2783.59
1933.38478 808.711
1933.77149 2576.22
1934.15828 4080.1
1934.54515 2307.01
1934.9321 45569.6
1935.31913 535.093
1935.70623 1998.26
1936.09341 1355.48
1936.48067 4200.63
1936.868 2424.22
1937.25541 1665.68
1937.6429 1146.6
1938.03047 4035.02
1938.41812 1963.15
1938.80584 1796.04
1939.19364 4606.74
1939.58152 3899.98
1939.96947 7584.69
1940.3575 1059.67
1940.74561 1957.97
1941.1338 2655.32
1941.52207 4231.25
1941.91041 1996.02
1942.29883 403.333
1942.68733 487.88
1943.07591 861.29
1943.46456 1525.68
1943.85329 2736.23
1944.2421 1818.25
1944.63099 3109.34
1945.01995 3648.68
1945.409 1448.78
1945.79812 1184.37
1946.18732 2116.16
1946.57659 539.357
1946.96595 1856.91
1947.35538 2835.56
1947.74489 1069.02
1948.13448 3133.22
1948.52414 2129.14
1948.91389 1005.86
1949.30371 2858.94
1949.69361 889.462
1950.08359 1916.76
1950.47364 1434.51
1950.86378 2065.26
1951.25399 1060.12
1951.64428 8191.68
1952.03465 11516.6
1952.42509 1612.3
1952.81562 3002.67
1953.20622 4119.97
1953.5969 1988.93
1953.98766 1684.45
1954.37849 3102.79
1954.76941 1553.84
1955.1604 2163.24
1955.55147 5133.92
1955.94262 17599.4
1956.33385 10491.3
1956.72516 2169.54
1957.11654 3246.55
1957.508 2114.32
1957.89954 3492.92
1958.29116 2682.56
1958.68286 1827.54
1959.07463 3163.13
1959.46649 14039.1
1959.85842 935.052
1960.25043 595.448
1960.64252 931.597
1961.03469 3201.62
1961.42694 829.512
1961.81926 9836.87
1962.21166 2378.84
1962.60414 2236.1
1962.9967 1756.42
1963.38934 3548.75
1963.78206 1837.48
1964.17486 42065.9
1964.56773 2539.17
1964.96068 644.776
1965.35371 2292.81
1965.74682 955.721
1966.14001 2062.94
1966.53328 1567.91
1966.92663 414.582
1967.32005 1677.81
1967.71355 17197.4
1968.10714 2593.49
1968.5008 762.099
1968.89454 1093.55
1969.28836 1624.02
1969.68225 4466.86
1970.07623 57981.5
1970.47028 202.595
1970.86442 1324.22
1971.25863 1384.95
1971.65292 2848.84
1972.04729 1418.74
1972.44174 1413.26
1972.83627 259.196
1973.23087 715.936
1973.62556 13959.8
1974.02032 1603.45
1974.41517 1612.32
1974.81009 280.564
1975.20509 32717.6
1975.60017 348.504
1975.99533 1281.51
1976.39057 133.964
1976.78589 259.223
1977.18128 90118
1977.57676 523.149
1977.97231 311.952
1978.36795 229.322
1978.76366 294.721
1979.15945 175.323
1979.55533 973.799
1979.95128 3223.55
1980.34731 1900.27
1980.74342 1022.78
1981.1396 152.989
1981.53587 144.06
1981.93222 168.733
1982.32864 174.326
1982.72515 412.535
1983.12173 780.673
1983.5184 65.3547
1983.91514 32148.4
1984.31196 141.629
1984.70887 60.6238
1985.10585 992.485
1985.50291 147.805
1985.90005 63.9371
1986.29727 95.4073
1986.69457 533.604
1987.09195 3359.52
1987.4894 224.185
1987.88694 238.107
1988.28456 147.907
1988.68226 68.7383
1989.08003 1398.27
1989.47789 1330.38
1989.87582 878.303
1990.27384 2286.06
1990.67193 1178.35
1991.07011 104.302
1991.46836 50.9127
1991.86669 185.104
1992.26511 2279.7
1992.6636 2281.2
1993.06217 54.4374
1993.46083 111.714
1993.85956 118.772
1994.25837 1639.34
1994.65726 363.516
1995.05623 179.862
1995.45528 529.185
1995.85441 862.322
1996.25363 375.903
1996.65292 1350.93
1997.05229 1068.85
1997.45174 964.341
1997.85127 1301.23
1998.25088 2878.4
1998.65057 1818.01
1999.05034 2091.05
1999.45019 2369.32
1999.85012 2749.93
2000.25013 2980.78
2000.65022 175351
2001.05039 3936.56
2001.45064 3906.85
2001.85097 3371.28
2002.25138 3192.04
2002.65187 4951.31
2003.05244 4933.69
2003.45309 54423.4
2003.85382 4005.86
2004.25463 2941.49
2004.65552 5033.02
2005.05649 5141.97
2005.45754 3982.83
2005.85868 4543.76
2006.25989 5112.4
2006.66118 4017.47
2007.06255 13495.5
2007.46401 3950.86
2007.86554 3341.58
2008.26715 1408.31
2008.66885 1952.35
2009.07062 820.528
2009.47247 2779.45
2009.87441 1833.4
2010.27642 4307.07
2010.67852 3495.19
2011.08069 2272.44
2011.48295 6870.81
2011.88529 1622.74
2012.28771 4841.3
2012.6902 3575.73
2013.09278 3212.74
2013.49544 5454.35
2013.89818 1720.17
2014.301 5167.51
2014.7039 1376.76
2015.10688 5266.09
2015.50994 1686.47
2015.91308 5062.6
2016.31631 2422.41
2016.71961 4413.86
2017.123 3914.89
2017.52646 4659.46
2017.93001 3843.03
2018.33363 2298.78
2018.73734 3916.59
2019.14113 23987
2019.545 5842.63
2019.94895 1892.74
2020.35298 3012.37
2020.75709 1846.17
2021.16128 2644.14
2021.56555 1885.67
2021.9699 1348.12
2022.37434 2381.16
2022.77885 773.433
2023.18345 3027.32
2023.58813 640.928
2023.99289 2288.17
2024.39773 1262.41
2024.80265 1931.31
2025.20765 597.899
2025.61273 1469.54
2026.01789 429.993
2026.42314 914.913
2026.82846 600.72
2027.23387 277.144
2027.63935 142764
2028.04492 867.701
2028.45057 819.062
2028.8563 883.752
2029.26211 523.219
2029.66801 282.797
2030.07398 214.442
2030.48004 631.081
2030.88617 299.43
2031.29239 400.743
2031.69869 201.614
2032.10507 294.411
2032.51153 228.184
2032.91808 354.817
2033.3247 914.818
2033.73141 5140.95
2034.13819 62841.7
2034.54506 226.36
2034.95201 245.822
2035.35904 133.091
2035.76615 164.275
2036.17335 124.855
2036.58062 156.382
2036.98798 143.341
2037.39542 157.889
2037.80294 167.352
2038.21054 341.68
2038.61822 130.678
2039.02599 193.684
2039.43383 198.43
2039.84176 362.929
2040.24977 899.328
2040.65786 344.154
2041.06603 99089.5
2041.47429 94232.3
2041.88262 138.108
2042.29104 227.679
2042.69954 241.898
2043.10812 345.408
2043.51678 290.599
2043.92553 331.491
2044.33435 472.479
2044.74326 280.446
2045.15225 229.742
2045.56132 246.984
2045.97047 278.441
2046.37971 356.969
2046.78903 476.498
2047.19843 515.601
2047.60791 300.501
2048.01747 792.569
2048.42711 930.288
2048.83684 1244.66
2049.24665 1343.68
2049.65654 616.635
2050.06651 36063.9
2050.47656 2106.14
2050.8867 2259.88
2051.29692 1072.96
2051.70722 2002.93
2052.1176 2711.05
2052.52807 3021.97
2052.93861 809.995
2053.34924 3074.49
2053.75995 3485.95
2054.17075 2291.89
2054.58162 2020.66
2054.99258 3610.94
2055.40362 3104.74
2055.81474 1086.92
2056.22594 128762
2056.63723 3346.93
2057.0486 994.25
2057.46005 3320.34
2057.87158 2348.79
2058.2832 956.138
2058.6949 2336
2059.10668 726.574
2059.51854 1171.67
2059.93048 678.779
2060.34251 433.149
2060.75462 469.293
2061.16681 1191.38
2061.57909 1959.31
2061.99144 337.221
2062.40388 2699.14
2062.81641 1998.44
2063.22901 1682.54
2063.6417 3364.2
2064.05447 511.888
2064.46732 3589.95
2064.88025 1109.98
2065.29327 3036
2065.70637 3500.65
2066.11955 1024.5
2066.53282 3708.11
2066.94617 520.105
2067.3596 4945.39
2067.77311 820.035
2068.18671 3169.75
2068.60039 2694.45
2069.01415 1212.25
2069.42799 3085.38
2069.84192 762.343
2070.25593 2988.46
2070.67002 564.483
2071.0842 2742.25
2071.49845 579.663
2071.9128 2576.63
2072.32722 306.458
2072.74173 43633.2
2073.15632 43102.5
2073.57099 1681.04
2073.98575 632.561
2074.40058 1672.97
2074.81551 614.737
2075.23051 1295.14
2075.6456 830.895
2076.06077 882.356
2076.47602 567.017
2076.89136 991.717
2077.30678 448.771
2077.72228 1295.13
2078.13787 473.469
2078.55354 545.204
2078.96929 178.624
2079.38512 355.333
2079.80104 122.964
2080.21704 354.363
2080.63313 126.122
2081.0493 309.931
2081.46555 240.495
2081.88188 519.461
2082.2983 294.35
2082.7148 452.66
2083.13139 340.985
2083.54806 373.238
2083.96481 441.644
2084.38164 346.003
2084.79856 1116.09
2085.21556 376.782
2085.63265 418.999
2086.04981 18608
2086.46707 366.938
2086.8844 426.558
2087.30182 205.281
2087.71932 528.65
2088.13691 91.1299
2088.55458 572.757
2088.97233 163.336
2089.39017 412.73
2089.80809 279.799
2090.22609 489.186
2090.64418 18925.6
2091.06235 19462
2091.4806 281.461
2091.89894 163.04
2092.31736 318.374
2092.73587 189.385
2093.15445 267.227
2093.57313 172.489
2093.99188 802.778
2094.41072 114.94
2094.82965 183.799
2095.24866 101.77
2095.66775 173.256
2096.08692 88.0291
2096.50618 105.083
2096.92553 103.361
2097.34495 134.274
2097.76446 88.8051
2098.18406 92.7867
2098.60374 882.837
2099.0235 499.147
2099.44335 63.9487
2099.86328 97.8903
2100.28329 375.264
2100.70339 429.782
2101.12357 1670.04
2101.54384 918.435
2101.96419 680.411
2102.38463 517.332
2102.80514 467.083
2103.22575 5340.66
2103.64644 75.9119
2104.06721 56.871
2104.48806 65.8784
2104.909 166.431
2105.33003 2889.78
2105.75113 62.0738
2106.17233 7309.84
2106.5936 7430.22
2107.01496 7250.09
2107.43641 75.6276
2107.85794 51.4609
2108.27955 91.2587
2108.70125 57.1847
2109.12303 79.6856
2109.5449 7152.61
2109.96685 300.87
2110.38889 6962.54
2110.81101 6695.29
2111.23321 83.1969
2111.6555 32491.4
2112.07787 191.393
2112.50033 265.193
2112.92287 63.5518
2113.3455 60.0328
2113.76821 23.1246
2114.19101 48.5889
2114.61389 48.6846
2115.03685 91.8256
2115.4599 14298.3
2115.88304 69.5355
2116.30626 183.864
2116.72956 33.6802
2117.15295 56.4118
2117.57642 53184.7
2117.99998 83.3254
2118.42362 1057.44
2118.84735 219.838
2119.27116 64.3274
2119.69506 249.651
2120.11904 231.706
2120.5431 199.751
2120.96725 44.9454
2121.39149 94.644
2121.81581 36.0346
2122.24022 16.7355
2122.66471 30.0993
2123.08928 21480.5
2123.51394 31.0225
2123.93869 38.432
2124.36352 571.499
2124.78843 58151.3
2125.21343 33.2421
2125.63852 22.7206
2126.06369 22.0844
2126.48894 19.185
2126.91428 27.4132
2127.33971 66.6233
2127.76522 2303.74
2128.19082 1189.41
2128.6165 15.7185
2129.04226 22.9488
2129.46811 16.8701
2129.89405 11.0574
2130.32007 10.2659
2130.74618 32.2961
2131.17237 12.4009
2131.59865 2034.09
2132.02501 2045.25
2132.45146 20747.2
2132.87799 25.2609
2133.30461 12.8466
2133.73131 10.8331
2134.1581 10.5593
2134.58497 4.63308
2135.01193 8.90958
2135.43898 16.833
2135.86611 355.195
2136.29333 71.9643
2136.72063 13.6067
2137.14801 22.6066
2137.57549 31.7955
2138.00304 9.24182
2138.43069 44.4987
2138.85842 19.4354
2139.28623 37.0375
2139.71413 50.3628
2140.14212 25.1893
2140.57019 7.46485
2140.99835 12.4198
2141.42659 6.01419
2141.85492 18.9059
2142.28333 34.4648
2142.71183 24.9068
2143.14041 38.418
2143.56909 29.1881
2143.99784 5.82087
2144.42668 46.8185
2144.85561 28.2483
2145.28463 12.3483
2145.71373 45.574
2146.14291 33.5752
2146.57218 30.0126
2147.00154 29.7103
2147.43098 75.975
2147.86051 56.8012
2148.29013 151.843
2148.71983 69.6352
2149.14962 77.8073
2149.57949 89.8834
2150.00945 261.677
2150.43949 15458.3
2150.86962 145408
2151.29984 1153.5
2151.73014 593.576
2152.16053 177.08
2152.59101 321.732
2153.02157 5377.96
2153.45222 335.992
2153.88295 58173.2
2154.31377 839.919
2154.74468 666.452
2155.17567 116.263
2155.60675 182.117
2156.03791 30.5669
2156.46916 95.4174
2156.9005 2117.01
2157.33192 66.8513
2157.76343 59.2668
2158.19503 22661.8
2158.62671 40.4276
2159.05848 693.796
2159.49033 63.9148
2159.92227 340.433
2160.3543 65.0162
2160.78642 234.363
2161.21862 367.849
2161.6509 62.0709
2162.08328 914.663
2162.51574 277.136
2162.94828 103.995
2163.38092 2561.79
2163.81363 8246.21
2164.24644 50.7292
2164.67933 48.0486
2165.11231 67.4125
2165.54538 77.9047
2165.97853 51.7729
2166.41177 195.035
2166.8451 280.18
2167.27851 235.062
2167.71201 93.3345
2168.14559 80.4627
2168.57927 1577.76
2169.01302 488.997
2169.44687 118.096
2169.8808 50.0719
2170.31482 119.772
2170.74893 2398.36
2171.18312 32381
2171.6174 37.9617
2172.05177 53.2161
2172.48622 406.074
2172.92076 332.605
2173.35539 52.3951
2173.79011 383.241
2174.22491 149.869
2174.6598 1008.66
2175.09477 95.2564
2175.52983 181.043
2175.96498 378.329
2176.40022 949.135
2176.83554 27.6832
2177.27095 26.7331
2177.70645 115.732
2178.14204 125.391
2178.57771 518.696
2179.01347 248.572
2179.44931 1686
2179.88525 66.6551
2180.32127 110053
2180.75738 37.3688
2181.19357 13.4756
2181.62985 6.92335
2182.06622 10.3251
2182.50268 63.07
2182.93922 346.38
2183.37586 2984.05
2183.81257 188.98
2184.24938 305.289
2184.68627 1541.38
2185.12326 2676.39
2185.56032 292.555
2185.99748 18.3125
2186.43472 14.3812
2186.87205 257.582
2187.30947 45511
2187.74698 728.314
2188.18457 920.99
2188.62225 73.7552
2189.06002 106.422
2189.49787 262.244
2189.93582 29.9799
2190.37385 1050.16
2190.81197 146.326
2191.25017 12.574
2191.68847 14.5763
2192.12685 7.18942
2192.56532 36.8577
2193.00388 19.8434
2193.44252 11.9012
2193.88125 24.6085
2194.32007 116.759
2194.75898 1825.02
2195.19798 738.678
2195.63706 131792
2196.07623 149.354
2196.51549 636.271
2196.95484 175.047
2197.39427 207.862
2197.83379 138.57
2198.27341 3850.82
2198.7131 501.292
2199.15289 940.847
2199.59277 991.856
2200.03273 1932.48
2200.47278 1630.87
2200.91292 553.935
2201.35314 498.876
2201.79346 724.642
2202.23386 862.801
2202.67435 659.218
2203.11493 473.558
2203.5556 263.563
2203.99635 978.753
2204.4372 400.912
2204.87813 3252.32
2205.31915 40429
2205.76026 239.991
2206.20145 80.3183
2206.64274 859.391
2207.08411 262.164
2207.52557 598.069
2207.96712 67.9795
2208.40876 24.292
2208.85048 67.549
2209.2923 102.519
2209.7342 39.3655
2210.17619 312.609
2210.61827 233.963
2211.06044 294.006
2211.50269 77.0797
2211.94504 43.271
2212.38747 51939.5
2212.82999 51959.2
2213.2726 36.9217
2213.7153 86.5391
2214.15809 156.836
2214.60097 321.258
2215.04393 807.538
2215.48698 72.0951
2215.93013 2119.22
2216.37336 662.346
2216.81667 510.039
2217.26008 54.4221
2217.70358 96.6831
2218.14716 309.11
2218.59084 218.142
2219.0346 77.1109
2219.47845 96.639
2219.92239 280.949
2220.36642 85.316
2220.81054 279.291
2221.25474 583.663
2221.69904 661.763
2222.14342 360.561
2222.5879 240.113
2223.03246 228.191
2223.47711 114.768
2223.92185 255.329
2224.36668 105.178
2224.8116 26805.7
2225.2566 1160.53
2225.7017 421.195
2226.14688 136.689
2226.59216 830.237
2227.03752 928.935
2227.48297 245.919
2227.92851 270.428
2228.37415 267.925
2228.81986 82.4561
2229.26567 217.706
2229.71157 70.7439
2230.15756 172.631
2230.60363 339.522
2231.0498 30968.8
2231.49605 32127
2231.9424 312.487
2232.38883 1347.06
2232.83535 289.597
2233.28196 189.971
2233.72867 952.378
2234.17546 288.336
2234.62234 291.931
2235.06931 389.382
2235.51636 153.956
2235.96351 1147.92
2236.41075 930.429
2236.85808 324.378
2237.30549 601.823
2237.753 790.217
2238.20059 670.399
2238.64828 148.968
2239.09605 168.491
2239.54392 471.14
2239.99187 174.846
2240.43991 1271.24
2240.88805 377.861
2241.33627 1086.79
2241.78458 517.505
2242.23298 347.544
2242.68147 448.712
2243.13006 343.317
2243.57873 906.314
2244.02749 1455.18
2244.47634 981.827
2244.92528 78.6063
2245.37431 304.351
2245.82343 7019.46
2246.27264 7834.39
2246.72194 1344.36
2247.17133 2935.42
2247.6208 544.721
2248.07037 301.24
2248.52003 260.479
2248.96978 537.09
2249.41962 271.277
2249.86955 865.445
2250.31957 827.348
2250.76968 1232.86
2251.21988 570.595
2251.67017 15193.7
2252.12054 15168.8
2252.57101 812.298
2253.02157 715.453
2253.47222 1225.7
2253.92296 2113.51
2254.37379 812.624
2254.82471 628.941
2255.27572 971.161
2255.72682 1152.45
2256.17801 1313.97
2256.62929 1873.67
2257.08066 2270.79
2257.53213 615.914
2257.98368 996.216
2258.43532 1147.29
2258.88705 269.463
2259.33887 488.032
2259.79079 629.105
2260.24279 1252.61
2260.69488 815.054
2261.14707 2878.57
2261.59934 3184.6
2262.05171 1975.56
2262.50416 1919.95
2262.95671 127.451
2263.40935 1421.22
2263.86207 1867.12
2264.31489 959.635
2264.7678 3619.95
2265.2208 957.773
2265.67389 297.177
2266.12707 325.323
2266.58034 300.004
2267.0337 444.655
2267.48715 1159.8
2267.94069 959.613
2268.39433 3578.02
2268.84805 6714.54
2269.30187 3673.14
2269.75577 614.693
2270.20977 1937.87
2270.66386 1432.71
2271.11803 297.591
2271.5723 1008.26
2272.02666 1052.37
2272.48111 3808.4
2272.93566 530.508
2273.39029 1077.99
2273.84501 6244.74
2274.29983 5913.63
2274.75473 1492.56
2275.20973 1675.66
2275.66482 6126.55
2276.11999 2361.78
2276.57526 2673.82
2277.03062 2450.85
2277.48608 897.724
2277.94162 606.713
2278.39725 890.632
2278.85298 549.584
2279.30879 269.626
2279.7647 247.359
2280.2207 606.002
2280.67679 5584.71
2281.13297 598.651
2281.58924 974.443
2282.04561 510.783
2282.50206 1288.94
2282.95861 6903.03
2283.41524 1164.66
2283.87197 4731.85
2284.32879 1192.2
2284.78571 650.355
2285.24271 3792.47
2285.6998 958.416
2286.15699 290.188
2286.61426 1089.15
2287.07163 753.079
2287.52909 1198.74
2287.98665 575.535
2288.44429 990.568
2288.90202 639.177
2289.35985 3634.85
2289.81777 6373.55
2290.27578 2609.44
2290.73388 725.365
2291.19207 2724.9
2291.65035 1396.77
2292.10873 2647.53
2292.5672 4087.5
2293.02576 613.78
2293.48441 1066.39
2293.94315 5284.25
2294.40199 1379.06
2294.86091 4837.11
2295.31993 2690.93
2295.77904 6466.27
2296.23824 3277.71
2296.69753 1948.1
2297.15692 510.198
2297.6164 587.252
2298.07597 2806.18
2298.53563 8615.83
2298.99538 3148
2299.45523 3086.17
2299.91516 2345.31
2300.37519 4074.66
2300.83531 3959.72
2301.29553 1164.47
2301.75583 1123.54
2302.21623 2023.52
2302.67672 2679.06
2303.1373 1069.23
2303.59797 4348.03
2304.05874 2533.39
2304.5196 5038.49
2304.98055 1871.96
2305.44159 2572.53
2305.90272 1584.52
2306.36395 1991.9
2306.82527 1545.19
2307.28668 2658.45
2307.74818 4132.31
2308.20978 1113.16
2308.67147 583.877
2309.13325 996.063
2309.59512 2306.48
2310.05709 1169.63
2310.51914 233.531
2310.98129 158.956
2311.44354 590.608
2311.90587 737.982
2312.3683 1463.86
2312.83082 62.8954
2313.29343 91.9953
2313.75614 122.379
2314.21893 62.7267
2314.68182 182.026
2315.14481 742.001
2315.60788 829.856
2316.07105 5060.78
2316.53431 8602.18
2316.99766 16410.6
2317.46111 8329.07
2317.92465 9367.08
2318.38828 7825.92
2318.852 4166.54
2319.31582 3441.4
2319.77973 4966.13
2320.24373 2553.05
2320.70783 3887.51
2321.17201 1480.01
2321.63629 3275.41
2322.10067 13120.2
2322.56514 7848.81
2323.02969 5751.42
2323.49435 4046.07
2323.95909 3313.61
2324.42393 841.401
2324.88886 1386.89
2325.35389 4174.68
2325.819 1476.24
2326.28421 1949.81
2326.74952 1435.95
2327.21491 422.594
2327.6804 1210.24
2328.14599 582.736
2328.61166 9370.57
2329.07743 2061.77
2329.54329 1984.29
2330.00925 574.509
2330.4753 1322.2
2330.94144 2841.31
2331.40767 3048.45
2331.874 5144.24
2332.34042 2703.82
2332.80694 2067.46
2333.27355 701.544
2333.74025 2020.56
2334.20704 2791.07
2334.67393 3186.1
2335.14091 5986.65
2335.60799 924.845
2336.07515 4992.14
2336.54242 1573.3
2337.00977 1534.71
2337.47722 1746.93
2337.94476 2325.52
2338.4124 6549.13
2338.88013 7638.26
2339.34795 2818.44
2339.81587 9240.32
2340.28388 15583.7
2340.75198 3982.57
2341.22018 12540.1
2341.68847 4203.96
2342.15685 17349.7
2342.62533 3646.91
2343.0939 3547.63
2343.56257 5497.63
2344.03133 3075.02
2344.50018 3142.37
2344.96913 13563
2345.43817 5704.49
2345.9073 4300.91
2346.37653 4053.78
2346.84585 6730.2
2347.31527 5490.2
2347.78478 8665.27
2348.25438 11411.6
2348.72408 3799.69
2349.19387 5606.67
2349.66376 15470
2350.13374 4920.78
2350.60381 14288
2351.07398 12710
2351.54424 25297.2
2352.0146 10325.3
2352.48505 45510.6
2352.95559 3735.64
2353.42623 14075
2353.89696 2612.29
2354.36779 2246.27
2354.83871 5012.52
2355.30972 2512.94
2355.78083 14262.4
2356.25204 9260.56
2356.72333 7130.72
2357.19473 5245.01
2357.66621 1662
2358.13779 6787.94
2358.60947 25720.9
2359.08124 9570.9
2359.5531 649.92
2360.02506 1291.98
2360.49711 1173.29
2360.96926 1232.84
2361.4415 8647.57
2361.91383 4208.83
2362.38626 1162.82
2362.85879 1397.23
2363.33141 4586.72
2363.80412 20898.2
2364.27693 6762.87
2364.74983 4377.87
2365.22283 1416.71
2365.69592 909.083
2366.16911 6458.22
2366.64239 1284.88
2367.11576 22042.4
2367.58923 16196.4
2368.0628 2790.03
2368.53646 7420.23
2369.01021 23693.3
2369.48406 3128.44
2369.95801 12815.4
2370.43205 43054.2
2370.90618 30500.6
2371.38041 55766.3
2371.85473 21884.5
2372.32915 13409.8
2372.80366 14731.4
2373.27827 3318.19
2373.75298 9186.39
2374.22777 2265.33
2374.70267 5873.77
2375.17765 5790.53
2375.65274 1875.92
2376.12792 9219.26
2376.60319 36298.5
2377.07856 11404.2
2377.55402 8520.96
2378.02958 68491.4
2378.50523 22347.3
2378.98098 4238.89
2379.45682 9733.18
2379.93276 10061.2
2380.4088 11244.1
2380.88493 12846.1
2381.36115 2038.56
2381.83747 1492.95
2382.31389 6317.8
2382.7904 11611.2
2383.267 52055.6
2383.7437 24631.5
2384.2205 73548.1
2384.69739 10583.2
2385.17438 3246.96
2385.65146 10723.6
2386.12864 59827.1
2386.60591 14722.8
2387.08328 2873.85
2387.56075 9826.19
2388.03831 77194.3
2388.51596 8874.86
2388.99371 3034.08
2389.47156 4114.14
2389.9495 12029.3
2390.42754 3658.25
2390.90567 12633.1
2391.3839 105846
2391.86223 16229.9
2392.34065 6625.81
2392.81916 3627.59
2393.29777 8253.46
2393.77648 2391.07
2394.25528 19333.5
2394.73418 7651.38
2395.21318 4230.38
2395.69227 7447
2396.17146 5450.96
2396.65074 77451.7
2397.13012 33927.5
2397.60959 11988.2
2398.08916 7299.28
2398.56883 5060.74
2399.04859 4254.65
2399.52844 5843.05
2400.0084 4970.15
2400.48845 38881.8
2400.96859 3068.22
2401.44884 1950.24
2401.92917 11199.1
2402.40961 3799.69
2402.89014 2810.69
2403.37076 6617.44
2403.85149 13038
2404.3323 129951
2404.81322 6993.54
2405.29423 6339.06
2405.77534 9639.31
2406.25654 24789.2
2406.73784 51477.2
2407.21923 53729.4
2407.70073 70538.3
2408.18231 8706.16
2408.664 2923.84
2409.14578 6631.04
2409.62766 41086.8
2410.10963 68419.9
2410.5917 5025.12
2411.07387 3322.89
2411.55613 46047.8
2412.03849 25390.8
2412.52095 13544
2413.0035 4184.39
2413.48615 11128.2
2413.96889 34488
2414.45174 105883
2414.93467 9120.54
2415.41771 18459.5
2415.90084 184509
2416.38407 118793
2416.86739 12575.8
2417.35082 8627.59
2417.83434 11327.2
2418.31795 93499
2418.80166 129646
2419.28547 215074
2419.76938 51104.8
2420.25338 9419.41
2420.73748 6338.4
2421.22167 5914
2421.70597 5686.03
2422.19036 40638.7
2422.67484 6357.19
2423.15943 5340.95
2423.64411 9718.49
2424.12888 104409
2424.61376 9821.33
2425.09873 18837.7
2425.5838 8196.07
2426.06896 28490.8
2426.55423 98562.6
2427.03958 6291.4
2427.52504 6875.01
2428.01059 4635.18
2428.49625 3462.26
2428.98199 6164.32
2429.46784 5830.51
2429.95378 8334.75
2430.43982 4831.78
2430.92596 4545.38
2431.41219 4792.46
2431.89852 4741.05
2432.38495 5697.31
2432.87147 21511.9
2433.3581 121953
2433.84482 14419.9
2434.33164 19668.3
2434.81855 95336.4
2435.30556 306357
2435.79267 150255
2436.27988 243674
2436.76718 124150
2437.25459 15212.3
2437.74209 10290.4
2438.22968 7348.89
2438.71738 6220.16
2439.20517 4299.75
2439.69306 4043
2440.18105 5986.99
2440.66913 4715.11
2441.15732 4036.39
2441.6456 6554.8
2442.13397 4967.03
2442.62245 27689
2443.11102 57960.9
2443.59969 7185.3
2444.08846 9053.19
2444.57733 12147.8
2445.06629 17925.9
2445.55536 57545
2446.04452 342403
2446.53377 86453.4
2447.02313 115183
2447.51258 130168
2448.00213 116898
2448.49178 18725.7
2448.98153 12086.7
2449.47138 16607.5
2449.96132 133156
2450.45136 170924
2450.9415 142664
2451.43174 332444
2451.92207 69388.2
2452.41251 22434.2
2452.90304 12904.8
2453.39367 26914.5
2453.8844 112203
2454.37522 92771.1
2454.86615 192632
2455.35717 15339.8
2455.84829 8624.22
2456.33951 11291.7
2456.83082 16632.8
2457.32224 8063.85
2457.81375 6295.69
2458.30537 7215.23
2458.79708 8374.99
2459.28888 17615.3
2459.78079 12278.6
2460.2728 7147.44
2460.7649 8602.09
2461.2571 19411.3
2461.7494 24556.7
2462.2418 60587
2462.7343 406151
2463.2269 92599.5
2463.71959 27145.6
2464.21238 88155.5
2464.70528 35397.7
2465.19827 11575.6
2465.69135 9809.46
2466.18454 26802.3
2466.67783 11275.6
2467.17121 15134
2467.6647 181117
2468.15828 43714.1
2468.65196 45255.2
2469.14574 22533
2469.63962 15468
2470.1336 22618
2470.62767 27889.8
2471.12185 42601.4
2471.61612 106697
2472.11049 452223
2472.60497 377803
2473.09954 361612
2473.5942 62408.1
2474.08897 30966
2474.58384 22599.5
2475.07881 78016.2
2475.57387 65085.5
2476.06904 17536.9
2476.5643 14928.8
2477.05966 31158.9
2477.55512 80040
2478.05068 27069.5
2478.54634 141220
2479.0421 52421.2
2479.53796 96547.2
2480.03392 96732.3
2480.52997 308430
2481.02613 116568
2481.52238 348801
2482.01874 64533.4
2482.51519 61296.5
2483.01174 58014.1
2483.5084 113955
2484.00515 400743
2484.502 407287
2484.99895 94937.8
2485.496 47660
2485.99315 72288.7
2486.4904 68113.3
2486.98774 252792
2487.48519 217045
2487.98274 502792
2488.48038 337189
2488.97813 86218.5
2489.47598 253842
2489.97392 58812.1
2490.47196 191937
2490.97011 137840
2491.46835 102536
2491.9667 404400
2492.46514 181884
2492.96368 137373
2493.46233 159688
2493.96107 145515
2494.45991 518934
2494.95885 481519
2495.45789 311178
2495.95703 75158.2
2496.45628 236936
2496.95562 105998
2497.45506 67266.1
2497.9546 185811
2498.45424 107611
2498.95398 105936
2499.45382 139944
2499.95376 92058.9
