# Obtained using Skycalc tool from ESO webpage
# Not including telescope emissivity
Wave[nm] Radiance[photons/s/m**2/micron/arsec**2]
1920 3158.13
1920.24516 4021.1
1920.49036 4322.2
1920.73559 4583.1
1920.98084 4432.75
1921.22613 3786.28
1921.47145 3090.55
1921.7168 2595.11
1921.96219 1792.7
1922.2076 1291.93
1922.45305 1125.62
1922.69852 1173.74
1922.94403 1186.89
1923.18957 1102.42
1923.43514 1449.2
1923.68075 2576.11
1923.92638 3957.53
1924.17204 4571.73
1924.41774 6912.98
1924.66347 28318.7
1924.90923 73111.5
1925.15502 77831.4
1925.40084 30922
1925.64669 4377.51
1925.89258 1537.74
1926.13849 1918.29
1926.38444 1718.07
1926.63042 2246.26
1926.87643 3624.18
1927.12247 4292.56
1927.36855 3941.68
1927.61465 3058.77
1927.86079 2224.95
1928.10695 2199.36
1928.35315 3239.1
1928.59938 4224.43
1928.84565 3738.05
1929.09194 2318.52
1929.33826 1441.73
1929.58462 1276.57
1929.83101 1604.38
1930.07743 2735.84
1930.32388 3568.38
1930.57036 3200.41
1930.81687 3311.88
1931.06342 3643.67
1931.30999 3396.72
1931.5566 3006.55
1931.80324 2877.62
1932.04991 2469.42
1932.29661 1483.78
1932.54335 1394.33
1932.79011 2199.04
1933.03691 2203.15
1933.28374 1405.12
1933.5306 1453.06
1933.77749 2711.98
1934.02441 3755.42
1934.27137 3303
1934.51835 4396.3
1934.76537 17885.7
1935.01242 33816.4
1935.2595 17220.8
1935.50661 3173.94
1935.75376 1713.91
1936.00093 1754.91
1936.24814 2444.5
1936.49538 3592.08
1936.74265 3345.64
1936.98995 2118.42
1937.23728 1579.21
1937.48465 1502.59
1937.73204 2205.88
1937.97947 3374.07
1938.22693 2989.3
1938.47442 1876.92
1938.72195 1938.76
1938.9695 3184.11
1939.21709 3912.45
1939.4647 4032.66
1939.71235 5702.77
1939.96003 6343.31
1940.20775 3292.72
1940.45549 1561.05
1940.70327 2020.58
1940.95107 2770.69
1941.19891 2753.28
1941.44678 3198.89
1941.69469 3133.96
1941.94262 2144.95
1942.19059 979.763
1942.43858 484.094
1942.68661 600.003
1942.93467 829.01
1943.18276 880.288
1943.43089 1663.93
1943.67904 2623.61
1943.92723 2071.64
1944.17545 1867.08
1944.4237 2526.56
1944.67198 3202.83
1944.9203 3501.82
1945.16864 2528.68
1945.41702 1703.71
1945.66543 1395.35
1945.91387 1507.2
1946.16234 1574.39
1946.41085 1220.3
1946.65938 888.787
1946.90795 1481.12
1947.15655 2540.18
1947.40518 2422.9
1947.65385 1753.93
1947.90254 1890.46
1948.15127 2625.02
1948.40003 2364.64
1948.64882 1833.99
1948.89764 1561.85
1949.14649 2049.23
1949.39538 2213.31
1949.64429 1719.41
1949.89324 1632.26
1950.14222 1500.55
1950.39124 1436.3
1950.64028 1536.73
1950.88936 1669.8
1951.13847 1298.63
1951.38761 1890.48
1951.63678 7381.36
1951.88598 13966.3
1952.13522 7985.9
1952.38448 2523.15
1952.63378 2439
1952.88311 3022
1953.13248 3336.14
1953.38187 3364.33
1953.6313 2331.61
1953.88075 1661
1954.13024 2417.74
1954.37977 3007.53
1954.62932 2336.77
1954.87891 1758.89
1955.12852 2350.12
1955.37817 4007.77
1955.62785 9507.15
1955.87757 16582.6
1956.12731 14509.4
1956.37709 6935.98
1956.6269 3103.45
1956.87674 2318.84
1957.12661 2758.68
1957.37651 3008.88
1957.62645 2561.85
1957.87642 2693.62
1958.12642 2818.86
1958.37645 2678.58
1958.62652 2268.27
1958.87661 3013.61
1959.12674 7135.03
1959.3769 11009.3
1959.62709 6054.53
1959.87731 1676.88
1960.12757 915.42
1960.37786 807.259
1960.62818 1325.82
1960.87853 2173.53
1961.12891 2122.69
1961.37933 1650.46
1961.62978 4275.34
1961.88025 8155.1
1962.13077 5402.54
1962.38131 2177.63
1962.63188 2119.66
1962.88249 2360.97
1963.13313 2352.57
1963.3838 3045.36
1963.63451 3670.73
1963.88524 10305.8
1964.13601 24021
1964.38681 24225.1
1964.63764 10266.7
1964.8885 2243.72
1965.1394 1357.57
1965.39033 1806.94
1965.64129 1611.22
1965.89228 1832.44
1966.1433 1552.4
1966.39436 1178.16
1966.64545 1344.08
1966.89657 942.758
1967.14772 969.982
1967.3989 2105.11
1967.65012 7511.02
1967.90137 14114.5
1968.15265 7806.32
1968.40396 1992.56
1968.6553 1240.42
1968.90668 818.597
1969.15809 893.284
1969.40953 1751.45
1969.661 6245.08
1969.91251 26084.1
1970.16404 42759.4
1970.41561 20414.1
1970.66721 3143.44
1970.91885 1464
1971.17051 1731.92
1971.42221 1958.9
1971.67394 2288.04
1971.9257 1955.96
1972.1775 1630.86
1972.42932 1149.72
1972.68118 581.563
1972.93307 797.395
1973.18499 3191.3
1973.43695 7710.26
1973.68894 8406.89
1973.94096 4460.27
1974.19301 2168.71
1974.44509 1182.68
1974.69721 2064.38
1974.94936 12187.6
1975.20154 24078.3
1975.45375 12370.4
1975.70599 2122.46
1975.95827 918.158
1976.21058 721.449
1976.46292 443.082
1976.71529 4321.87
1976.9677 33343.8
1977.22014 66492.2
1977.47261 33491.8
1977.72511 4543.21
1977.97764 450.05
1978.23021 230.608
1978.48281 287.051
1978.73544 298.548
1978.9881 211.433
1979.2408 301.535
1979.49353 968.951
1979.74629 2232.05
1979.99908 2653.55
1980.25191 2185.51
1980.50476 1848.49
1980.75765 953.981
1981.01058 300.899
1981.26353 154.529
1981.51652 158.454
1981.76954 162.824
1982.02259 132.813
1982.27567 153.128
1982.52879 316.375
1982.78193 591.499
1983.03511 704.597
1983.28833 408.266
1983.54157 1584.44
1983.79485 11868.7
1984.04816 23687.3
1984.3015 11911.8
1984.55488 1588.44
1984.80828 230.564
1985.06172 504.94
1985.31519 736.547
1985.5687 376.339
1985.82223 103.562
1986.0758 81.9689
1986.3294 182.39
1986.58304 720.302
1986.8367 1882.72
1987.0904 2291.94
1987.34413 1151.43
1987.59789 357.4
1987.85169 230.483
1988.10552 186.73
1988.35938 138.331
1988.61327 153.771
1988.86719 616.169
1989.12115 1508
1989.37514 1531.2
1989.62916 974.97
1989.88322 1366.79
1990.1373 1915.5
1990.39142 1461.4
1990.64558 1061.43
1990.89976 580.582
1991.15398 181.869
1991.40823 68.7216
1991.66251 106.306
1991.91682 259.652
1992.17117 1031.62
1992.42555 2526.69
1992.67996 2501.76
1992.9344 967.132
1993.18888 180.658
1993.44339 102.825
1993.69793 178.383
1993.95251 678.876
1994.20711 1237.62
1994.46175 782.578
1994.71642 386.728
1994.97113 246.754
1995.22587 274.698
1995.48063 587.709
1995.73544 886.189
1995.99027 653.136
1996.24514 536.17
1996.50004 840.67
1996.75497 1172.61
1997.00993 1030.36
1997.26493 1017.41
1997.51996 1204.17
1997.77502 1432.97
1998.03012 2052.07
1998.28524 2642.9
1998.5404 2226.43
1998.7956 1819.23
1999.05082 2299.37
1999.30608 2393.53
1999.56137 2312.02
1999.81669 2709.48
2000.07205 3657.69
2000.32744 16680.7
2000.58286 73066.5
2000.83831 123181
2001.0938 61184.4
2001.34932 10628.4
2001.60487 3967.76
2001.86045 3639.46
2002.11607 4061.69
2002.37172 4305.21
2002.6274 4711.39
2002.88311 7255.68
2003.13886 22744.4
2003.39464 40758
2003.65045 22361.3
2003.9063 6469.13
2004.16217 4283.3
2004.41808 4373.39
2004.67403 4269.14
2004.93 4165.39
2005.18601 4411.51
2005.44205 4622.59
2005.69813 5297.57
2005.95423 4702.85
2006.21037 4485.92
2006.46654 4323.54
2006.72275 8035.35
2006.97899 11732.6
2007.23526 7383.67
2007.49156 3693.82
2007.7479 2801.77
2008.00426 2831.75
2008.26066 2218.01
2008.5171 1877.65
2008.77356 1478.49
2009.03006 1156.31
2009.2866 1644.2
2009.54316 2447.55
2009.79976 2584.58
2010.05639 3217.52
2010.31305 3426.53
2010.56975 3167.1
2010.82648 3600.8
2011.08324 2995.38
2011.34003 3862.06
2011.59686 5360.52
2011.85372 4291.77
2012.11061 3998.6
2012.36754 3377.19
2012.62449 3471.13
2012.88148 4276.44
2013.13851 3257.74
2013.39556 3501.01
2013.65265 4253.38
2013.90978 3313.17
2014.16693 3508.55
2014.42412 3751.15
2014.68134 3209.55
2014.93859 3866.48
2015.19588 3527.62
2015.4532 3116.56
2015.71055 3905.37
2015.96794 3336.46
2016.22535 3259.77
2016.4828 4129.78
2016.74029 3516.35
2016.9978 3606.74
2017.25535 4807.92
2017.51294 4261.94
2017.77055 3310.14
2018.0282 3886.16
2018.28588 3096.83
2018.54359 2643.1
2018.80134 4434.39
2019.05912 11770.3
2019.31693 20182
2019.57478 11725.3
2019.83266 3879.12
2020.09057 2091.5
2020.34851 2304.84
2020.60649 2948.17
2020.8645 2305.83
2021.12254 2215.4
2021.38062 2756.58
2021.63873 1868.93
2021.89687 1722.86
2022.15505 2383.62
2022.41325 1626.92
2022.67149 1240.23
2022.92977 1938.28
2023.18807 2091.62
2023.44641 1351.97
2023.70479 1371.97
2023.96319 1823.26
2024.22163 1458.22
2024.4801 1684.04
2024.73861 1841.89
2024.99715 1118.86
2025.25572 688.679
2025.51432 890.565
2025.77296 1164.29
2026.03163 813.108
2026.29033 721.805
2026.54907 952.338
2026.80784 876.234
2027.06664 6915.38
2027.32547 52661.1
2027.58434 105107
2027.84324 52980.6
2028.10218 7435.39
2028.36114 1141.9
2028.62014 881.013
2028.87918 705.216
2029.13824 504.06
2029.39734 530.053
2029.65648 366.197
2029.91564 228.753
2030.17484 369.89
2030.43407 508.128
2030.69334 410.524
2030.95264 363.604
2031.21197 354.738
2031.47133 302.768
2031.73073 263.236
2031.99016 277.763
2032.24962 309.93
2032.50912 281.776
2032.76865 332.949
2033.02821 544.861
2033.28781 1556.22
2033.54744 9012.99
2033.8071 31338.5
2034.0668 43718.9
2034.32653 19665.8
2034.58629 2582.33
2034.84608 292.625
2035.10591 188.037
2035.36577 156.852
2035.62567 148.456
2035.8856 146.145
2036.14556 152.892
2036.40555 155.121
2036.66558 140.632
2036.92564 139.407
2037.18573 126.867
2037.44586 141.295
2037.70602 146.895
2037.96621 189.77
2038.22644 262.405
2038.4867 311.048
2038.74699 238.355
2039.00732 186.68
2039.26768 180.645
2039.52807 200.233
2039.7885 388.926
2040.04896 672.912
2040.30945 709.646
2040.56998 782.704
2040.83054 9164.62
2041.09113 71152
2041.35176 142056
2041.61241 71151
2041.87311 9073.33
2042.13383 501.453
2042.39459 232.587
2042.65538 269.378
2042.91621 281.354
2043.17707 269.401
2043.43796 262.835
2043.69889 330.093
2043.95984 397.16
2044.22084 433.146
2044.48186 371.963
2044.74292 325.349
2045.00401 281.242
2045.26514 225.247
2045.5263 238.839
2045.78749 242.63
2046.04872 291.569
2046.30997 327.567
2046.57127 367.437
2046.83259 434.233
2047.09395 441.59
2047.35534 552.415
2047.61677 556.35
2047.87823 675.833
2048.13972 738.402
2048.40125 875.135
2048.66281 907.028
2048.9244 1051.72
2049.18602 1124.08
2049.44768 2876
2049.70938 13934.7
2049.9711 26831.3
2050.23286 14276
2050.49466 3409.55
2050.75648 1765.94
2051.01834 1933.55
2051.28024 1886.86
2051.54216 2217.67
2051.80412 2111.01
2052.06612 2381.58
2052.32814 2289.77
2052.5902 2527.33
2052.8523 2304.53
2053.11443 2564.42
2053.37659 2242.96
2053.63878 2363.42
2053.90101 2619.31
2054.16327 2534.48
2054.42557 2956.02
2054.68789 2785.13
2054.95026 3049.42
2055.21265 2659.62
2055.47508 2891.2
2055.73754 4940.7
2056.00004 26474.9
2056.26257 70090.6
2056.52513 73678.6
2056.78773 30512.6
2057.05036 5623.88
2057.31302 2567.12
2057.57572 2037.82
2057.83845 1836.69
2058.10121 2306.86
2058.36401 1910.64
2058.62684 1881.2
2058.88971 1288.38
2059.15261 1005.19
2059.41554 1191.56
2059.67851 824.357
2059.9415 601.239
2060.20454 457.236
2060.4676 478.786
2060.7307 740.956
2060.99384 1136.57
2061.257 1038.38
2061.52021 1262.94
2061.78344 1354.51
2062.04671 1512.05
2062.31001 2126.94
2062.57334 1634.63
2062.83671 1793.7
2063.10012 2411.45
2063.36355 2220.05
2063.62702 2551.07
2063.89053 1877.48
2064.15406 1896.44
2064.41763 2773.27
2064.68124 1930.71
2064.94488 2006.18
2065.20855 2791.81
2065.47225 2442.34
2065.73599 2798.16
2065.99976 2334.59
2066.26357 2182.96
2066.52741 2884.58
2066.79128 1945.54
2067.05519 2357.84
2067.31913 3772.61
2067.58311 2356.21
2067.84712 1950.57
2068.11116 2683.94
2068.37523 2010.43
2068.63934 2126.23
2068.90349 2326.64
2069.16766 1974.35
2069.43188 2356.56
2069.69612 1901.19
2069.9604 1716.43
2070.22471 2283.44
2070.48906 1644.21
2070.75344 1568.1
2071.01785 2159.47
2071.2823 1424.9
2071.54678 1359.31
2071.81129 1952.75
2072.07584 1509.04
2072.34042 5047.15
2072.60504 32510.2
2072.86969 62807
2073.13437 31991.4
2073.39909 5430.64
2073.66384 1211.55
2073.92863 986.888
2074.19345 1330.91
2074.4583 1025.95
2074.72318 908.391
2074.9881 1287.7
2075.25306 941.662
2075.51805 802.999
2075.78307 1026.38
2076.04812 787.407
2076.31321 644.219
2076.57834 748.855
2076.84349 727.059
2077.10869 621.179
2077.37391 800.723
2077.63917 1081.43
2077.90446 768.456
2078.16979 545.158
2078.43515 582.471
2078.70054 396.689
2078.96597 292.3
2079.23143 313.004
2079.49693 206.631
2079.76246 204.238
2080.02802 307.375
2080.29362 227.97
2080.55925 158.233
2080.82492 199.729
2081.09062 288.126
2081.35635 308.138
2081.62212 332.798
2081.88792 372.978
2082.15375 364.295
2082.41962 381.491
2082.68553 404.454
2082.95146 386.541
2083.21743 408.347
2083.48344 432.416
2083.74948 399.536
2084.01555 370.156
2084.28166 447.313
2084.5478 677.846
2084.81397 837.588
2085.08018 584.092
2085.34642 895.155
2085.6127 4266.31
2085.87901 10483.5
2086.14536 10418.5
2086.41173 4122.47
2086.67815 742.319
2086.94459 389.768
2087.21108 343.87
2087.47759 327.639
2087.74414 397.19
2088.01072 301.501
2088.27734 332.297
2088.54399 415.588
2088.81067 306.267
2089.07739 309.558
2089.34415 332.455
2089.61093 268.676
2089.87776 382.23
2090.14461 521.827
2090.4115 2048.27
2090.67842 14201.9
2090.94538 28155.7
2091.21237 14145.1
2091.4794 1977.44
2091.74646 324.952
2092.01355 186.927
2092.28068 228.723
2092.54784 315.529
2092.81504 210.793
2093.08227 179.244
2093.34953 267.247
2093.61683 422.485
2093.88417 610.484
2094.15153 421.771
2094.41893 192.423
2094.68637 148.143
2094.95384 166.231
2095.22134 129.819
2095.48888 126.519
2095.75645 150.867
2096.02406 113.719
2096.2917 84.9571
2096.55937 104.788
2096.82708 116.834
2097.09482 124.086
2097.3626 122.627
2097.63041 102.89
2097.89826 95.7884
2098.16614 195.62
2098.43405 523.753
2098.702 800.075
2098.96998 555.858
2099.238 224.975
2099.50605 100.808
2099.77413 111.789
2100.04225 213.074
2100.3104 412.036
2100.57859 522.597
2100.84681 797.614
2101.11507 1341.12
2101.38336 1170.59
2101.65168 1060.73
2101.92004 693.019
2102.18844 419.475
2102.45686 577.582
2102.72532 779.948
2102.99382 2178.37
2103.26235 3958.74
2103.53091 2005.13
2103.79951 313.12
2104.06815 76.348
2104.33681 69.8092
2104.60552 93.4651
2104.87425 258.543
2105.14302 1149.24
2105.41183 2161.77
2105.68067 1433.67
2105.94954 2881.96
2106.21845 6087.75
2106.48739 8104.94
2106.75636 11084.8
2107.02537 5410.22
2107.29442 732.032
2107.5635 91.2067
2107.83261 70.078
2108.10176 73.1244
2108.37094 73.2664
2108.64016 71.4669
2108.90941 86.0541
2109.1787 398.822
2109.44802 2708.3
2109.71737 5406.61
2109.98676 3146.85
2110.25618 3297.64
2110.52564 7592.67
2110.79513 7532.65
2111.06466 4309.63
2111.33422 12194.2
2111.60381 23833.5
2111.87344 12229.3
2112.14311 1779.92
2112.41281 260.964
2112.68254 176.136
2112.95231 97.2052
2113.22211 59.4319
2113.49194 43.0648
2113.76181 36.7188
2114.03172 42.1819
2114.30166 32.6037
2114.57163 39.8725
2114.84164 93.6758
2115.11168 741.627
2115.38176 5315.65
2115.65187 10558.7
2115.92202 5341.88
2116.1922 799.359
2116.46242 121.689
2116.73267 126.763
2117.00295 2488.68
2117.27327 19563.7
2117.54362 39110.1
2117.81401 19665
2118.08443 2633.93
2118.35489 602.801
2118.62538 870.143
2118.89591 460.655
2119.16647 125.496
2119.43706 132.722
2119.70769 238.901
2119.97836 264.401
2120.24906 237.085
2120.51979 164.492
2120.79056 79.7849
2121.06136 66.7074
2121.3322 78.5679
2121.60307 59.8591
2121.87398 39.4573
2122.14492 30.8676
2122.41589 60.5057
2122.6869 1013.46
2122.95795 7917.92
2123.22903 15807.8
2123.50014 7920.51
2123.77129 1031.21
2124.04247 270.397
2124.31369 3038.82
2124.58494 21743.1
2124.85623 42870.7
2125.12755 21396.7
2125.39891 2693.78
2125.6703 104.934
2125.94173 19.8478
2126.21319 19.5618
2126.48468 20.026
2126.75621 28.3344
2127.02778 49.07
2127.29937 216.069
2127.57101 1009.32
2127.84268 2066.96
2128.11438 1656.62
2128.38612 549.266
2128.65789 78.5938
2128.9297 22.7003
2129.20154 18.7084
2129.47342 15.4196
2129.74533 11.9539
2130.01727 13.2908
2130.28925 17.9037
2130.56127 24.8911
2130.83332 22.9105
2131.1054 108.865
2131.37752 849.7
2131.64968 2270.52
2131.92187 2930.49
2132.19409 6484.94
2132.46635 13086.8
2132.73864 9934.52
2133.01097 2967.77
2133.28333 318.494
2133.55573 19.6082
2133.82817 11.0063
2134.10063 10.3812
2134.37313 7.74336
2134.64567 6.66299
2134.91824 8.44669
2135.19085 18.0114
2135.46349 88.3907
2135.73617 223.307
2136.00888 237.489
2136.28162 109.14
2136.55441 29.0694
2136.82722 17.8598
2137.10007 25.0172
2137.37296 32.6783
2137.64588 21.5866
2137.91883 12.8495
2138.19182 23.3426
2138.46485 36.5188
2138.7379 27.773
2139.011 27.68
2139.28413 44.09
2139.55729 53.3294
2139.83049 38.0607
2140.10372 22.656
2140.37699 12.538
2140.6503 10.1323
2140.92364 11.3834
2141.19701 8.09594
2141.47042 6.72138
2141.74386 12.1125
2142.01734 24.9145
2142.29085 32.4327
2142.5644 32.1232
2142.83798 31.8328
2143.1116 30.3341
2143.38525 33.1028
2143.65894 25.1776
2143.93266 13.0955
2144.20642 18.5926
2144.48021 39.3008
2144.75404 41.9259
2145.0279 23.9107
2145.3018 15.4726
2145.57573 27.103
2145.8497 45.7315
2146.1237 41.9383
2146.39774 31.8348
2146.67181 27.5816
2146.94592 39.634
2147.22006 60.8988
2147.49424 61.3043
2147.76845 86.0623
2148.0427 127.935
2148.31698 95.3758
2148.5913 68.2438
2148.86565 80.7348
2149.14004 79.7771
2149.41446 93.6911
2149.68892 176.558
2149.96341 1124.84
2150.23794 12467.2
2150.5125 64785.6
2150.7871 112628
2151.06173 54764.6
2151.3364 7738.37
2151.6111 972.132
2151.88584 481.392
2152.16062 347.526
2152.43542 559.578
2152.71027 2140.9
2152.98515 4080.28
2153.26006 4793.65
2153.53501 21893.6
2153.80999 42995.2
2154.08501 21785
2154.36006 3326.47
2154.63515 654.765
2154.91028 521.64
2155.18544 302.631
2155.46063 164.114
2155.73586 139.84
2156.01113 85.4173
2156.28643 162.594
2156.56176 837.159
2156.83713 1583.5
2157.11254 834.79
2157.38798 767.268
2157.66345 5303.39
2157.93896 13185
2158.21451 11891.3
2158.49009 4187.59
2158.76571 726.329
2159.04136 521.978
2159.31705 324.086
2159.59277 177.526
2159.86852 234.738
2160.14432 202.782
2160.42014 122.988
2160.69601 182.816
2160.97191 328.961
2161.24784 293.495
2161.52381 184.953
2161.79981 260.395
2162.07585 553.396
2162.35192 626.449
2162.62803 401.258
2162.90418 334.289
2163.18036 1419.86
2163.45657 4867.26
2163.73282 6973.48
2164.00911 3189.93
2164.28543 437.318
2164.56179 64.3341
2164.83818 57.7673
2165.11461 58.5228
2165.39107 56.0436
2165.66757 71.7126
2165.9441 96.0821
2166.22067 155.488
2166.49727 206.114
2166.77391 287.434
2167.05058 284.085
2167.32729 157.281
2167.60404 92.9444
2167.88082 98.6114
2168.15763 180.165
2168.43449 682.069
2168.71137 1224.63
2168.98829 772.625
2169.26525 400.508
2169.54224 222.341
2169.81927 96.7184
2170.09633 136.121
2170.37343 631.29
2170.65057 2853.55
2170.92773 13238.3
2171.20494 24324.1
2171.48218 11997.7
2171.75945 1536.03
2172.03677 112.755
2172.31411 194.096
2172.59149 386.462
2172.86891 345.789
2173.14636 216.154
2173.42385 135.917
2173.70137 208.38
2173.97893 334.655
2174.25653 544.754
2174.53416 812.577
2174.81182 457.215
2175.08952 185.005
2175.36726 169.582
2175.64503 168.685
2175.92284 449.356
2176.20068 826.834
2176.47856 571.041
2176.75647 174.083
2177.03442 44.7719
2177.3124 60.82
2177.59042 98.9817
2177.86848 97.9459
2178.14657 233.552
2178.4247 428.858
2178.70286 371.619
2178.98106 726.027
2179.25929 1355.1
2179.53756 3402.28
2179.81586 22990.4
2180.0942 60770.9
2180.37258 60744.3
2180.65099 22796.1
2180.92943 2642.65
2181.20791 100.04
2181.48643 10.2114
2181.76498 8.59368
2182.04357 14.6557
2182.3222 49.8813
2182.60086 170.322
2182.87955 472.671
2183.15828 1360.74
2183.43705 2168.66
2183.71585 1196.57
2183.99469 446.635
2184.27356 503.378
2184.55247 1530.25
2184.83141 2627.77
2185.11039 1771.33
2185.38941 645.545
2185.66846 185.151
2185.94755 45.2087
2186.22667 18.8442
2186.50583 116.573
2186.78502 2353.39
2187.06425 17118.5
2187.34352 33594.7
2187.62282 17106.3
2187.90215 2751.54
2188.18152 831.855
2188.46093 407.715
2188.74038 120.835
2189.01985 103.564
2189.29937 197.332
2189.57892 204.493
2189.85851 139.822
2190.13813 374.345
2190.41779 764.337
2190.69748 539.267
2190.97721 161.752
2191.25697 29.7867
2191.53677 12.4505
2191.81661 12.9835
2192.09648 14.2519
2192.37639 23.635
2192.65633 30.9097
2192.93631 24.0735
2193.21633 14.1017
2193.49638 13.1636
2193.77646 23.7661
2194.05659 98.0332
2194.33674 541.177
2194.61694 1405.52
2194.89717 4487.96
2195.17743 28061
2195.45773 73015
2195.73807 72675.8
2196.01844 27305.9
2196.29885 3460.6
2196.57929 609.151
2196.85977 354.142
2197.14029 204.881
2197.42084 202.164
2197.70143 339.3
2197.98205 1409.84
2198.26271 2783.91
2198.54341 1877
2198.82414 784.054
2199.1049 755.183
2199.38571 1097.82
2199.66655 1326.9
2199.94742 1656.48
2200.22833 1755.85
2200.50928 1513.2
2200.79026 950.493
2201.07127 545.926
2201.35233 460.577
2201.63342 603.916
2201.91454 762.45
2202.1957 833.238
2202.4769 725.829
2202.75813 635.981
2203.0394 525.883
2203.32071 401.445
2203.60205 375.179
2203.88343 582.43
2204.16484 781.608
2204.44629 937.888
2204.72777 3517.34
2205.00929 17072.5
2205.29085 30719.6
2205.57244 15114
2205.85407 2051.04
2206.13573 223.198
2206.41743 363.641
2206.69917 659.063
2206.98094 494.179
2207.26275 450.224
2207.5446 487.416
2207.82648 254.57
2208.10839 84.8656
2208.39034 50.0905
2208.67233 58.6437
2208.95436 69.3571
2209.23642 89.3547
2209.51851 66.619
2209.80064 61.4485
2210.08281 209.241
2210.36502 380.589
2210.64726 229.612
2210.92953 170.501
2211.21185 242.516
2211.49419 146.708
2211.77658 280.736
2212.059 5355.16
2212.34146 38843.5
2212.62395 75811.9
2212.90648 37698.9
2213.18904 4741.49
2213.47164 207.715
2213.75428 103.957
2214.03695 139.169
2214.31966 165.048
2214.60241 447.843
2214.88519 782.423
2215.16801 433.978
2215.45086 231.579
2215.73375 867.843
2216.01668 1706.79
2216.29964 1285.82
2216.58264 791.616
2216.86567 360.667
2217.14874 101.622
2217.43185 81.0037
2217.71499 136.792
2217.99817 213.701
2218.28138 239.447
2218.56464 202.395
2218.84792 159.798
2219.13125 118.154
2219.41461 142.264
2219.698 213.76
2219.98143 188.091
2220.2649 162.075
2220.54841 217.486
2220.83195 207.189
2221.11552 343.312
2221.39914 686.857
2221.68279 744.449
2221.96647 523.223
2222.25019 280.642
2222.53395 219.97
2222.81775 225.219
2223.10158 208.128
2223.38544 171.024
2223.66935 193.144
2223.95328 239.247
2224.23726 1381.14
2224.52127 9964.99
2224.80532 20030.7
2225.0894 10598.6
2225.37352 1921.15
2225.65768 497.732
2225.94187 324.607
2226.2261 380.631
2226.51037 642.334
2226.79467 726.742
2227.07901 733.288
2227.36338 534.166
2227.64779 330.651
2227.93224 283.595
2228.21672 264.469
2228.50124 207.186
2228.7858 165.178
2229.07039 175.504
2229.35502 144.301
2229.63969 104.622
2229.92439 107.126
2230.20913 196.306
2230.4939 1697.95
2230.77871 13060.8
2231.06356 34353.1
2231.34844 34692.6
2231.63336 13767.1
2231.91832 2228.64
2232.20331 846.364
2232.48834 980.529
2232.7734 618.481
2233.05851 334.127
2233.34364 448.01
2233.62882 729.02
2233.91403 512.483
2234.19928 287.557
2234.48456 275.863
2234.76988 316.782
2235.05524 345.618
2235.34063 311.588
2235.62606 382.081
2235.91152 720.942
2236.19703 1035.18
2236.48257 970.336
2236.76814 563.265
2237.05375 414.361
2237.3394 594.778
2237.62509 777.777
2237.91081 820.257
2238.19656 606.01
2238.48236 303.989
2238.76819 184.009
2239.05406 185.622
2239.33996 297.377
2239.6259 432.311
2239.91188 569.18
2240.19789 868.449
2240.48394 739.779
2240.77003 495.703
2241.05615 596.44
2241.34231 877.704
2241.6285 860.133
2241.91474 436.073
2242.201 286.598
2242.48731 460.869
2242.77365 508.802
2243.06003 441.697
2243.34645 573.237
2243.6329 1067.84
2243.91939 1540.77
2244.20591 1347.07
2244.49247 656.046
2244.77907 240.222
2245.0657 224.786
2245.35238 848.625
2245.63908 5241.15
2245.92583 10448.8
2246.21261 5938.31
2246.49943 1815.99
2246.78628 1599.75
2247.07317 2104.55
2247.3601 1947.34
2247.64706 1023.87
2247.93406 429.389
2248.2211 270.897
2248.50818 279.312
2248.79529 394.874
2249.08243 484.686
2249.36962 549.958
2249.65684 717.592
2249.9441 680.888
2250.23139 886.099
2250.51872 1068.29
2250.80609 895.957
2251.09349 1404.1
2251.38093 6623.44
2251.66841 16627.7
2251.95593 16606.8
2252.24348 6828.86
2252.53106 1523.28
2252.81869 679.765
2253.10635 798.254
2253.39405 1031.24
2253.68178 1514.15
2253.96955 1923.52
2254.25736 1401.02
2254.54521 822.768
2254.83309 660.656
2255.12101 780.544
2255.40896 1071.87
2255.69695 1307.83
2255.98498 1460.48
2256.27305 1293.39
2256.56115 1698.31
2256.84929 2097.22
2257.13747 1757.99
2257.42568 1021.16
2257.71393 794.956
2258.00221 968.143
2258.29054 968.831
2258.5789 869.971
2258.86729 571.432
2259.15573 437.475
2259.4442 466.258
2259.73271 633.125
2260.02125 981.569
2260.30983 1021.62
2260.59845 993.393
2260.8871 1707.67
2261.17579 2338.98
2261.46452 2510.36
2261.75329 3060.68
2262.04209 2787.98
2262.33093 2278.24
2262.6198 1205.73
2262.90872 442.372
2263.19767 700.297
2263.48665 1593.01
2263.77568 1801.34
2264.06474 1361.46
2264.35383 1714.28
2264.64297 2548.87
2264.93214 2355.95
2265.22135 1340.29
2265.51059 598.785
2265.79987 326.241
2266.08919 297.393
2266.37855 327.382
2266.66794 385.343
2266.95737 500.786
2267.24684 708.318
2267.53634 1114.14
2267.82588 1523.14
2268.11546 2195.12
2268.40507 3559.54
2268.69472 6247.22
2268.98441 6513.54
2269.27414 2949.37
2269.5639 875.016
2269.8537 709.841
2270.14354 1473.38
2270.43341 2304.01
2270.72332 1264.32
2271.01327 439.701
2271.30325 531.11
2271.59327 914.554
2271.88333 1133
2272.17343 2067.99
2272.46356 2961.45
2272.75373 1882.38
2273.04394 756.753
2273.33418 994.569
2273.62446 3146.48
2273.91478 5143.71
2274.20513 4590.99
2274.49553 5074.4
2274.78596 3411.96
2275.07642 2387.04
2275.36692 3864.27
2275.65747 4698.24
2275.94804 3892.09
2276.23866 2468.93
2276.52931 2320.93
2276.82 2147.66
2277.11072 2191.29
2277.40149 1472.44
2277.69229 688.038
2277.98312 734.043
2278.274 922.56
2278.56491 683.376
2278.85586 533.224
2279.14684 375.635
2279.43787 271.636
2279.72893 253.803
2280.02003 439.668
2280.31116 1233.27
2280.60233 2978.63
2280.89354 3941.35
2281.18479 2108.44
2281.47607 967.881
2281.76739 771.138
2282.05875 675.207
2282.35014 1440.81
2282.64157 3644.23
2282.93304 5045.48
2283.22455 3326.28
2283.51609 1698.68
2283.80767 2636.68
2284.09929 3696.75
2284.39095 2066.77
2284.68264 945.428
2284.97437 1776.11
2285.26614 2839.41
2285.55794 2066.16
2285.84978 987.357
2286.14166 514.33
2286.43358 680.008
2286.72553 1074.9
2287.01752 965.286
2287.30955 850.33
2287.60162 1032.3
2287.89372 917.664
2288.18586 818.046
2288.47804 760.945
2288.77025 757.273
2289.0625 1608.14
2289.35479 3045.86
2289.64712 4416.19
2289.93948 5796.85
2290.23188 4022.09
2290.52432 1704.12
2290.8168 1253.64
2291.10931 1875.61
2291.40186 2107.76
2291.69445 2044.43
2291.98707 2465.09
2292.27974 3310.1
2292.57244 3217.66
2292.86517 1759.94
2293.15795 1018.83
2293.45076 1805.99
2293.74361 3372.27
2294.0365 3456.39
2294.32942 2288.53
2294.62238 2892.01
2294.91538 4389.12
2295.20842 4558.58
2295.50149 5270.12
2295.7946 4997.85
2296.08775 3706.5
2296.38094 2372.26
2296.67416 1763.75
2296.96742 1201.62
2297.26072 667.932
2297.55406 636.299
2297.84743 1569.18
2298.14084 4164.17
2298.43429 6704.84
2298.72778 5986.89
2299.0213 4309.6
2299.31486 3336.5
2299.60846 2241.78
2299.9021 2685.34
2300.19577 3884.94
2300.48948 3814.4
2300.78323 3542.83
2301.07701 2416.2
2301.37084 1365.7
2301.6647 1154.03
2301.9586 1407.57
2302.25253 2080.34
2302.5465 2262.54
2302.84052 2008.47
2303.13456 1934.58
2303.42865 2977.54
2303.72277 3880.2
2304.01694 3859.05
2304.31113 4021.84
2304.60537 3508.91
2304.89964 2419.61
2305.19396 1808.03
2305.4883 2169.14
2305.78269 1824.25
2306.07711 1637.61
2306.37158 1817.35
2306.66608 2077.81
2306.96061 1703.04
2307.25519 2806.84
2307.5498 4699.97
2307.84445 2822.97
2308.13914 1155.99
2308.43386 854.666
2308.72862 918.962
2309.02342 1296.28
2309.31826 1712.69
2309.61314 1750.56
2309.90805 1319.09
2310.203 741.386
2310.49799 339.965
2310.79302 215.789
2311.08808 190.565
2311.38318 379.346
2311.67832 758.147
2311.9735 1133.98
2312.26871 1340.61
2312.56397 647.627
2312.85926 145.699
2313.15458 95.0022
2313.44995 117.288
2313.74535 104.797
2314.04079 83.4679
2314.33627 119.32
2314.63179 350.854
2314.92734 587.692
2315.22293 469.331
2315.51856 911.809
2315.81423 2703.18
2316.10994 4918.09
2316.40568 7505.66
2316.70146 11953.2
2316.99728 14376.5
2317.29313 11983.7
2317.58903 9207.04
2317.88496 8957.46
2318.18093 8357.16
2318.47694 6923.47
2318.77298 5203.73
2319.06906 3766.17
2319.36518 3547.83
2319.66134 4170.9
2319.95754 3798.2
2320.25377 3175.05
2320.55005 3116.01
2320.84636 3154.78
2321.1427 2567.49
2321.43909 3052.41
2321.73551 6896.58
2322.03197 10701.9
2322.32847 8033.4
2322.62501 7123.03
2322.92158 6664.84
2323.2182 6813.6
2323.51485 4340.08
2323.81154 2873.15
2324.10826 2078.38
2324.40503 1307.32
2324.70183 1247.31
2324.99867 2086.78
2325.29555 3385.99
2325.59246 2951.83
2325.88941 1471.62
2326.18641 1361.61
2326.48344 2028.43
2326.7805 1498.39
2327.07761 767.515
2327.37475 633.291
2327.67193 872.07
2327.96915 1339.8
2328.26641 3993.13
2328.5637 7123.71
2328.86104 4499.54
2329.15841 2435.97
2329.45582 1981.31
2329.75326 1231.76
2330.05075 748.385
2330.34827 970.267
2330.64583 1970.68
2330.94343 2949.03
2331.24107 3584.9
2331.53874 4323.79
2331.83646 4415.88
2332.13421 3298.65
2332.432 2316.5
2332.72982 1887.11
2333.02769 1332.75
2333.32559 1189.19
2333.62353 1953.25
2333.92151 2721.26
2334.21953 2445.71
2334.51758 2949.29
2334.81568 4506.35
2335.11381 4787.31
2335.41198 2898.65
2335.71019 2418.65
2336.00843 3607.01
2336.30672 3037.57
2336.60504 2033.48
2336.9034 1658.12
2337.20179 1478.67
2337.50023 1790.54
2337.7987 2495.13
2338.09722 4059.13
2338.39577 5643.49
2338.69436 6593.71
2338.99298 6083.51
2339.29165 4364.97
2339.59035 5962.14
2339.88909 9848.46
2340.18787 11885.3
2340.48669 11107.2
2340.78554 9116.36
2341.08444 10121.6
2341.38337 9105.09
2341.68234 10321.7
2341.98135 13954.3
2342.28039 8406.46
2342.57948 4077.76
2342.8786 3533.19
2343.17776 4107.95
2343.47696 5152.78
2343.7762 5051.66
2344.07547 3043.43
2344.37479 3505.61
2344.67414 7588.16
2344.97353 10524.9
2345.27296 7979.75
2345.57242 5677.34
2345.87193 4594.03
2346.17147 3757.07
2346.47105 5366.96
2346.77067 6621.54
2347.07033 5633.72
2347.37003 6429.69
2347.66976 8742.71
2347.96953 9289.13
2348.26934 8741.44
2348.56919 6684.21
2348.86908 4653.77
2349.16901 5327.74
2349.46897 8929.56
2349.76897 13187.7
2350.06901 11559.8
2350.36909 12210.5
2350.66921 12449.2
2350.96937 12979.5
2351.26956 14503.1
2351.56979 20562
2351.87006 17886.9
2352.17037 24264.1
2352.47072 35015.4
2352.77111 20447.5
2353.07153 8708.21
2353.37199 9511.3
2353.67249 8564
2353.97303 4334.55
2354.27361 2698.94
2354.57423 3794.17
2354.87488 4307.99
2355.17557 3652.78
2355.4763 5686.35
2355.77707 11650.6
2356.07788 12759.1
2356.37873 7339.08
2356.67961 5181.31
2356.98054 7189.06
2357.2815 6242.61
2357.5825 3879.65
2357.88354 4441.65
2358.18461 10204.6
2358.48573 19910.9
2358.78688 19945.3
2359.08807 9470.11
2359.3893 2465.07
2359.69057 946.59
2359.99188 1131.17
2360.29323 1366.05
2360.59461 1270.45
2360.89603 1466.85
2361.1975 3426.58
2361.499 7094.3
2361.80054 6670.68
2362.10211 3206.39
2362.40373 1661.43
2362.70538 1661.54
2363.00707 2464.8
2363.30881 4622.02
2363.61057 10448.1
2363.91238 17778.6
2364.21423 12336.1
2364.51612 6485.57
2364.81804 3544.84
2365.12 1910.69
2365.422 1227.14
2365.72404 1237.49
2366.02612 3050.37
2366.32824 5020.2
2366.63039 4320.8
2366.93259 10023.8
2367.23482 20521.5
2367.53709 18086.5
2367.8394 10236.8
2368.14175 6089.96
2368.44413 7669.96
2368.74656 13693.4
2369.04902 17794.2
2369.35152 10494.3
2369.65407 6598.45
2369.95665 13921.4
2370.25926 30295.1
2370.56192 40652.1
2370.86462 35962
2371.16735 39768
2371.47012 47522.7
2371.77294 33753
2372.07579 18048.4
2372.37868 13317
2372.6816 12581.3
2372.98457 10258.4
2373.28758 6894.13
2373.59062 6790.26
2373.8937 6067.23
2374.19682 3984.38
2374.49998 4399.48
2374.80318 5313.54
2375.10642 4763.82
2375.40969 4275.29
2375.71301 4256.07
2376.01636 10060.2
2376.31976 22388.5
2376.62319 27536.5
2376.92666 19145.9
2377.23016 11570.9
2377.53371 11762.9
2377.8373 32413.2
2378.14092 59632.3
2378.44459 38455
2378.74829 12032.3
2379.05203 5179.88
2379.35581 6976.01
2379.65963 10832.1
2379.96349 10229.1
2380.26738 10262
2380.57132 12729.8
2380.87529 12306.4
2381.1793 6104.91
2381.48335 2488.36
2381.78744 2460.09
2382.09157 4103.86
2382.39574 6466.53
2382.69995 11278.7
2383.00419 26502.8
2383.30848 43461.3
2383.6128 46070.4
2383.91716 58226.1
2384.22157 47695.8
2384.52601 25143.8
2384.83048 9993.36
2385.135 5141.83
2385.43956 9526.96
2385.74415 28179.2
2386.04879 47000.5
2386.35346 31206.5
2386.65817 14251.9
2386.96293 7228.39
2387.26772 6672.15
2387.57254 12654.8
2387.87741 35701.3
2388.18232 59006.5
2388.48726 31975.4
2388.79225 7771.35
2389.09727 3606.84
2389.40234 5295.87
2389.70744 7957.92
2390.01258 8071.82
2390.31776 6435.84
2390.62297 7901.02
2390.92823 19355
2391.23353 52571.9
2391.53886 81175.9
2391.84424 43678.4
2392.14965 11559.2
2392.4551 6648.94
2392.7606 5869.32
2393.06613 6154.59
2393.37169 5917.19
2393.6773 4495.18
2393.98295 7910.4
2394.28864 14837.8
2394.59436 12623.4
2394.90013 7704
2395.20593 6182.67
2395.51177 6440.39
2395.81765 5870.46
2396.12358 9710.47
2396.42953 34080.5
2396.73553 61582.9
2397.04157 47078.1
2397.34765 31998.4
2397.65376 15350.4
2397.95992 6574.56
2398.26611 6967.69
2398.57235 6324.89
2398.87862 5041.18
2399.18493 3869.41
2399.49128 4460.51
2399.79767 7004.71
2400.1041 17446
2400.41057 28963.4
2400.71708 17452.9
2401.02362 5580.16
2401.33021 4053.66
2401.63683 6757.85
2401.9435 7702.72
2402.2502 5855.15
2402.55694 3547.24
2402.86372 4034.92
2403.17054 5767.66
2403.4774 8466.29
2403.7843 29075.2
2404.09124 72426.6
2404.39821 82975.2
2404.70523 38682.7
2405.01229 10546
2405.31938 7713.43
2405.62652 10965.4
2405.93369 16057.3
2406.2409 21755.9
2406.54815 36578.1
2406.85544 63275.6
2407.16277 56290
2407.47014 48467.6
2407.77755 53049.7
2408.085 28485.6
2408.39249 7923.47
2408.70001 4253.72
2409.00758 5946.47
2409.31518 13967.6
2409.62283 43450.1
2409.93051 70062.1
2410.23823 41300
2410.546 11847.3
2410.8538 4807.62
2411.16164 7368.5
2411.46952 26310.4
2411.77744 46829.9
2412.08539 31218
2412.39339 16831.3
2412.70143 8929.2
2413.00951 5294.13
2413.31762 10692
2413.62578 24929.9
2413.93397 52505.1
2414.24221 82029.4
2414.55048 55361.9
2414.85879 21186.1
2415.16714 17340.5
2415.47554 54916.9
2415.78397 137074
2416.09244 171136
2416.40095 101557
2416.70949 35046.6
2417.01808 12943.1
2417.32671 9654.01
2417.63538 11281.3
2417.94408 23335.3
2418.25283 76272
2418.56162 141258
2418.87044 150800
2419.17931 175232
2419.48821 139434
2419.79715 58457.6
2420.10613 17732.3
2420.41516 8668.33
2420.72422 6836.13
2421.03332 6070.86
2421.34246 6688.75
2421.65164 16147.4
2421.96086 29581.2
2422.27012 21401.9
2422.57942 9815.05
2422.88875 6483.45
2423.19813 6329.54
2423.50755 14939
2423.817 48319.2
2424.1265 75414.6
2424.43604 42574.5
2424.74561 17630.3
2425.05523 16316.7
2425.36488 12343.3
2425.67457 13677.3
2425.98431 43098
2426.29408 81286
2426.60389 55666
2426.91374 18864.8
2427.22363 7321.21
2427.53356 6470.65
2427.84353 5735.25
2428.15354 4053.16
2428.46359 3668.16
2428.77368 4893.54
2429.08381 6265.26
2429.39398 6715.84
2429.70419 7028.17
2430.01444 6955.58
2430.32472 5758.91
2430.63505 4517.4
2430.94542 4658.33
2431.25582 4749.1
2431.56627 4605.05
2431.87675 4725.93
2432.18728 5818.28
2432.49784 11447.7
2432.80845 26896.6
2433.11909 61914.9
2433.42978 89076.2
2433.7405 50196.5
2434.05126 21586.9
2434.36207 32047.8
2434.67291 72513
2434.98379 153919
2435.29471 247924
2435.60567 243436
2435.91667 202792
2436.22771 225676
2436.5388 185022
2436.84992 85031.9
2437.16108 28499.1
2437.47228 13530.8
2437.78352 9988.87
2438.09479 8214.6
2438.40611 6910.84
2438.71747 6158.91
2439.02887 5114.9
2439.34031 4421.37
2439.65179 4563.22
2439.9633 5135.37
2440.27486 5302.69
2440.58646 4954.9
2440.8981 4416.74
2441.20977 4315.7
2441.52149 5187.66
2441.83325 6170.51
2442.14504 8019.75
2442.45688 22647.2
2442.76876 47132.2
2443.08067 44078.7
2443.39263 21358.7
2443.70462 9982.98
2444.01666 9482.4
2444.32873 10867.3
2444.64085 12793.5
2444.953 17773
2445.2652 34653.8
2445.57743 98847
2445.88971 215125
2446.20202 248457
2446.51438 144904
2446.82677 98938.7
2447.1392 138926
2447.45168 128942
2447.76419 95581.9
2448.07674 94724.5
2448.38934 53492.6
2448.70197 19512.5
2449.01465 13416.2
2449.32736 17845.1
2449.64011 45693.1
2449.95291 126292
2450.26574 190183
2450.57861 148901
2450.89152 171118
2451.20448 253461
2451.51747 233643
2451.8305 125160
2452.14358 49395.2
2452.45669 24591.9
2452.76984 17216.9
2453.08303 20203
2453.39627 49488
2453.70954 87339.5
2454.02285 79223.2
2454.33621 116832
2454.6496 181741
2454.96303 115355
2455.2765 37374.7
2455.59002 13698.7
2455.90357 9928.75
2456.21716 11799.5
2456.5308 14441.8
2456.84447 13030.3
2457.15818 9480.16
2457.47194 7957.23
2457.78573 7205.93
2458.09956 7168.74
2458.41344 7266.79
2458.72735 8156
2459.0413 11883.5
2459.3553 16850.8
2459.66933 14845.9
2459.9834 9601.49
2460.29752 7592.25
2460.61167 8427.62
2460.92587 12566.1
2461.2401 19708.6
2461.55438 24019.8
2461.86869 33686.6
2462.18304 89602.9
2462.49744 222146
2462.81187 297352
2463.12635 181445
2463.44086 72416.4
2463.75542 38610.6
2464.07002 53745.7
2464.38465 81913.8
2464.69933 49866.6
2465.01404 18466.1
2465.3288 11405.7
2465.6436 14236.4
2465.95843 20573.9
2466.27331 18516.9
2466.58823 13611
2466.90318 14305.7
2467.21818 30102
2467.53322 91242.7
2467.8483 146610
2468.16342 90775.1
2468.47857 46415.1
2468.79377 36980.6
2469.10901 24627.8
2469.42429 17057.7
2469.73961 17010.5
2470.05497 21472.7
2470.37037 26538.9
2470.68581 29828
2471.00129 40121.4
2471.31681 68541.8
2471.63237 149706
2471.94797 308057
2472.26362 430246
2472.5793 420615
2472.89502 379980
2473.21078 251459
2473.52659 112348
2473.84243 49745.8
2474.15831 31303.7
2474.47424 27263.8
2474.7902 39946.7
2475.10621 60949.3
2475.42225 64457.4
2475.73834 57471.8
2476.05446 32931.3
2476.37063 17665.8
2476.68683 17706.4
2477.00308 36239.8
2477.31937 64841.7
2477.6357 58077.8
2477.95206 42054.9
2478.26847 69915.8
2478.58492 111344
2478.90141 81008.9
2479.21794 61781.1
2479.53451 86483.4
2479.85112 130073
2480.16777 176087
2480.48446 241005
2480.80119 195776
2481.11797 200442
2481.43478 266188
2481.75163 202507
2482.06853 99298.1
2482.38546 62080.7
2482.70243 56972.6
2483.01945 69175.9
2483.3365 104990
2483.6536 187358
2483.97074 349461
2484.28791 439026
2484.60513 312789
2484.92239 151240
2485.23969 74412.3
2485.55703 51637
2485.87441 56844.3
2486.19183 79575.2
2486.50929 130483
2486.82679 201238
2487.14433 192777
2487.46191 260029
2487.77953 407046
2488.0972 425767
2488.4149 344391
2488.73264 208639
2489.05043 154317
2489.36825 189495
2489.68612 153685
2490.00403 125776
2490.32197 154844
2490.63996 143521
2490.95799 138990
2491.27606 132664
2491.59417 170196
2491.91232 291695
2492.23051 316309
2492.54874 198909
2492.86702 136745
2493.18533 156029
2493.50368 160171
2493.82208 164555
2494.14051 276496
2494.45899 461504
2494.7775 528604
2495.09606 445887
2495.41466 309260
2495.73329 162702
2496.05197 106590
2496.37069 152111
2496.68945 193081
2497.00825 140055
2497.3271 97600.8
2497.64598 113842
2497.9649 138773
2498.28386 154529
2498.60287 97199.9
2498.92191 98317.5
2499.241 154593
2499.56013 133868
2499.87929 91350.4
2500.1985 64868.5
2500.51775 77077.9
2500.83704 98909.3
2501.15637 76170.8
2501.47574 80974.5
2501.79516 115025
2502.11461 115464
2502.4341 171883
2502.75364 344077
2503.07321 495544
2503.39283 410010
2503.71248 227284
2504.03218 151907
2504.35192 215619
2504.6717 291568
2504.99152 223404
2505.31138 253416
2505.63128 437863
2505.95123 532508
2506.27121 460531
2506.59123 333809
2506.9113 166950
2507.23141 74322.8
2507.55155 52925.3
2507.87174 51641
2508.19197 73934.5
2508.51224 155603
2508.83255 247947
2509.1529 266508
2509.47329 270330
2509.79373 178593
2510.1142 152353
2510.43472 288968
2510.75527 507080
2511.07587 567577
2511.39651 429583
2511.71719 307904
2512.03791 311213
2512.35867 321456
2512.67947 363370
2513.00031 295124
2513.32119 234458
2513.64212 147679
2513.96308 106952
2514.28409 188388
2514.60514 387886
2514.92623 545940
2515.24736 564773
2515.56853 573838
2515.88974 599942
2516.21099 612698
2516.53229 597399
2516.85362 570802
2517.175 645352
2517.49641 642958
2517.81787 472649
2518.13937 312335
2518.46091 262303
2518.78249 266914
2519.10411 403175
2519.42577 529606
2519.74748 368377
