# Obtained using Skycalc tool from ESO webpage
# Not including telescope emissivity
Wave[nm] Radiance[photons/s/m**2/micron/arsec**2]
800 357.137
800.114294 247.049
800.228604 221.585
800.342931 178.902
800.457273 258.299
800.571633 227.507
800.686008 224.128
800.8004 206.345
800.914808 177.802
801.029233 212.081
801.143674 180.461
801.258131 220.933
801.372605 235.411
801.487095 178.619
801.601601 3075.28
801.716124 276.426
801.830663 265.104
801.945218 181.088
802.05979 181.354
802.174378 489.749
802.288983 524.928
802.403604 181.629
802.518241 181.025
802.632895 256.976
802.747565 4646.26
802.862251 4382.64
802.976954 182.277
803.091673 953.819
803.206409 236.063
803.321161 183.137
803.435929 427.42
803.550714 183.013
803.665515 242.716
803.780332 243.539
803.895166 182.961
804.010017 184.323
804.124883 217.088
804.239767 188.49
804.354666 266.74
804.469582 214.127
804.584515 183.809
804.699464 185.415
804.814429 202.771
804.929411 202.414
805.044409 185.943
805.159423 320.602
805.274454 321.011
805.389502 2084.43
805.504566 185.862
805.619646 186.428
805.734743 210.335
805.849856 191.337
805.964985 201.254
806.080131 189.353
806.195294 220.606
806.310473 187.689
806.425668 4049.58
806.54088 215.931
806.656109 189.265
806.771353 194.564
806.886615 240.319
807.001893 222.619
807.117187 188.726
807.232497 187.849
807.347825 188.903
807.463168 189.323
807.578528 189.529
807.693905 312.21
807.809298 189.183
807.924708 316.532
808.040134 299.56
808.155576 189.87
808.271035 190.189
808.386511 190.256
808.502003 190.584
808.617511 190.936
808.733036 581.385
808.848578 191.091
808.964136 191.311
809.079711 191.429
809.195302 191.667
809.310909 190.776
809.426533 191.925
809.542174 1021.61
809.657831 191.067
809.773505 283.406
809.889195 191.352
810.004902 192.385
810.120625 197.066
810.236365 204.548
810.352121 221.376
810.467894 1928.82
810.583683 193.055
810.699489 281.979
810.815312 221.077
810.931151 220.765
811.047006 209.881
811.162878 193.431
811.278767 220.278
811.394672 217.175
811.510594 206.337
811.626533 190.895
811.742487 194.797
811.858459 195.288
811.974447 195.261
812.090452 193.462
812.206473 213.159
812.322511 193.217
812.438565 213.236
812.554636 228.621
812.670724 196.012
812.786828 195.4
812.902948 224.14
813.019086 251.929
813.135239 197.162
813.25141 220.994
813.367597 229.14
813.483801 258.528
813.600021 184.553
813.716258 233.312
813.832511 249.451
813.948781 234.468
814.065068 418.232
814.181371 445.006
814.297691 285.164
814.414028 208.874
814.530381 198.295
814.646751 192.878
814.763137 199.202
814.87954 688.015
814.99596 548.128
815.112396 189.674
815.228849 189.857
815.345319 212.12
815.461805 207.937
815.578308 211.929
815.694827 180.575
815.811364 200.2
815.927916 200.152
816.044486 185.475
816.161072 201.051
816.277675 200.742
816.394294 170.005
816.51093 186.048
816.627583 177.004
816.744252 190.858
816.860939 201.669
816.977641 201.902
817.094361 189.793
817.211097 171.02
817.32785 202.254
817.444619 202.834
817.561405 201.927
817.678208 201.745
817.795028 203.112
817.911864 172.7
818.028717 184.822
818.145586 190.232
818.262473 203.246
818.379376 187.968
818.496295 201.047
818.613232 204.106
818.730185 204.756
818.847155 190.639
818.964141 204.178
819.081144 473.887
819.198164 179.783
819.315201 205.216
819.432254 205.039
819.549324 183.101
819.666411 393.666
819.783515 355.736
819.900635 205.542
820.017772 178.896
820.134926 202.323
820.252096 192.852
820.369284 206.315
820.486488 207.795
820.603708 208.084
820.720946 243.647
820.8382 231.785
820.955471 283.334
821.072759 243.349
821.190063 237.803
821.307385 207.644
821.424723 202.684
821.542077 209.773
821.659449 257.634
821.776837 262.585
821.894242 210.453
822.011664 198.074
822.129103 210.773
822.246558 211.263
822.36403 203.853
822.481519 211.488
822.599025 202.034
822.716548 210.259
822.834087 205.112
822.951643 181.692
823.069216 152.177
823.186806 199.764
823.304412 190.621
823.422035 195.482
823.539676 212.863
823.657333 197.024
823.775006 213.954
823.892697 212.979
824.010404 210.283
824.128128 215.078
824.245869 210.984
824.363627 318.191
824.481402 308.002
824.599193 195.505
824.717002 216.597
824.834827 216.628
824.952669 363.774
825.070527 328.909
825.188403 217.715
825.306296 217.93
825.424205 217.511
825.542131 212.384
825.660074 218.513
825.778034 334.155
825.896011 195.043
826.014004 218.072
826.132015 215.817
826.250042 212.12
826.368086 219.939
826.486147 219.837
826.604225 212.39
826.72232 220.289
826.840431 221.238
826.95856 221.446
827.076705 247.022
827.194868 221.068
827.313047 222.089
827.431243 228.524
827.549456 220.889
827.667685 198.287
827.785932 222.151
827.904196 291.136
828.022476 2150.45
828.140774 1076.74
828.259088 222.158
828.377419 5779.93
828.495767 902.188
828.614132 254.609
828.732514 276.023
828.850913 2160.53
828.969328 205.886
829.087761 7801.54
829.206211 215.846
829.324677 686.786
829.443161 226.732
829.561661 226.033
829.680178 204.185
829.798712 3216.8
829.917264 227.732
830.035832 227.79
830.154417 9299.13
830.273019 214.297
830.391638 410.638
830.510273 493.189
830.628926 343.717
830.747596 284.102
830.866283 229.243
830.984986 229.373
831.103707 271.465
831.222445 229.789
831.341199 3500.16
831.459971 222.941
831.578759 228.899
831.697564 231.294
831.816387 224.445
831.935226 231.39
832.054083 594.65
832.172956 288.282
832.291846 226.208
832.410754 208.53
832.529678 233.22
832.648619 233.526
832.767578 233.594
832.886553 232.386
833.005545 234.123
833.124555 232.044
833.243581 226.46
833.362624 234.84
833.481684 232.405
833.600762 230.351
833.719856 233.859
833.838967 233.46
833.958096 398.394
834.077241 428.188
834.196404 233.675
834.315583 236.81
834.434779 234.107
834.553993 2910.58
834.673223 23526.3
834.792471 237.985
834.911736 237.727
835.031017 238.377
835.150316 603.23
835.269632 592.345
835.388964 239.241
835.508314 8152.75
835.627681 236.378
835.747065 238.95
835.866466 285.262
835.985884 235.12
836.105319 240.828
836.224771 378.34
836.34424 784.849
836.463727 337.296
836.58323 337.684
836.70275 2875.84
836.822288 448.166
836.941843 280.978
837.061414 242.813
837.181003 275.416
837.300609 242.756
837.420232 243.563
837.539872 269.91
837.659529 241.919
837.779203 244.003
837.898894 327.767
838.018603 244.403
838.138328 245.041
838.258071 995.987
838.37783 245.181
838.497607 5770.26
838.617401 244.573
838.737212 244.519
838.85704 245.786
838.976886 303.659
839.096748 246.883
839.216628 379.795
839.336524 336.654
839.456438 320.956
839.576369 247.165
839.696317 247.222
839.816282 283.745
839.936265 247.591
840.056264 248.956
840.176281 19438.1
840.296314 336.118
840.416365 249.916
840.536433 249.933
840.656519 249.98
840.776621 248.681
840.89674 250.917
841.016877 250.542
841.137031 248.684
841.257202 251.334
841.37739 251.666
841.497596 252.182
841.617818 252.245
841.738058 7210.91
841.858315 252.736
841.978589 252.627
842.09888 251.897
842.219188 253.652
842.339514 253.876
842.459857 254.143
842.580217 369.908
842.700594 391.644
842.820988 387.791
842.9414 526.623
843.061829 255.015
843.182275 255.304
843.302738 18736.6
843.423218 397.269
843.543716 256.398
843.664231 590.984
843.784763 283.527
843.905312 255.61
844.025879 256.796
844.146463 257.727
844.267064 257.518
844.387682 258.2
844.508317 257.748
844.62897 258.721
844.74964 258.589
844.870327 445.077
844.991031 259.442
845.111753 287.341
845.232492 259.812
845.353248 333.39
845.474021 6371.62
845.594812 338.223
845.71562 261.003
845.836445 261.275
845.957287 283.872
846.078147 261.788
846.199024 261.409
846.319918 341.549
846.44083 357.794
846.561758 262.59
846.682704 263.051
846.803668 16081.7
846.924648 263.556
847.045646 263.763
847.166661 263.914
847.287694 264.246
847.408744 264.552
847.529811 264.768
847.650895 665.259
847.771997 265.313
847.893116 265.552
848.014252 265.418
848.135405 265.908
848.256576 265.535
848.377764 266.554
848.49897 266.651
848.620193 267.081
848.741433 267.337
848.86269 267.266
848.983965 267.317
849.105257 267.906
849.226566 268.346
849.347893 268.31
849.469237 268.562
849.590599 4531.55
849.711977 529.569
849.833374 269.292
849.954787 398.044
850.076218 359.551
850.197666 270.012
850.319131 423.827
850.440614 442.173
850.562114 352.48
850.683632 8131.61
850.805167 271.058
850.926719 271.866
851.048289 272.129
851.169876 272.21
851.29148 272.605
851.413102 270.943
851.534741 272.766
851.656398 273.382
851.778071 273.415
851.899763 273.714
852.021471 274.082
852.143197 273.624
852.264941 495.72
852.386702 274.898
852.50848 274.807
852.630276 275.401
852.752089 275.535
852.873919 275.582
852.995767 276.182
853.117632 276.433
853.239515 276.416
853.361415 276.771
853.483332 277.199
853.605267 277.435
853.72722 277.241
853.849189 277.558
853.971176 278.137
854.093181 6862.77
854.215203 278.341
854.337243 277.948
854.459299 417.387
854.581374 279.491
854.703466 279.751
854.825575 279.651
854.947701 280.16
855.069845 2521.64
855.192007 1039.44
855.314186 280.953
855.436383 281.261
855.558596 281.101
855.680828 281.516
855.803077 281.825
855.925343 282.234
856.047627 282.471
856.169928 282.831
856.292247 283.074
856.414583 283.209
856.536937 283.528
856.659308 283.872
856.781696 284.133
856.904103 284.37
857.026526 284.634
857.148967 284.685
857.271426 285.019
857.393902 354.9
857.516396 285.335
857.638907 698.488
857.761435 389.414
857.883981 286.388
858.006545 376.147
858.129126 286.84
858.251725 286.972
858.374341 286.986
858.496975 287.229
858.619626 287.398
858.742294 287.551
858.864981 287.651
858.987684 688.676
859.110406 655.195
859.233145 287.927
859.355901 288.009
859.478675 288.335
859.601466 288.553
859.724275 288.647
859.847102 865.418
859.969946 875.271
860.092807 289.127
860.215687 289.268
860.338583 289.353
860.461498 289.542
860.58443 289.699
860.707379 354.481
860.830346 323.628
860.95333 290.122
861.076333 370.802
861.199352 324.072
861.32239 384.129
861.445444 361.376
861.568517 455.166
861.691607 472.507
861.814714 655.751
861.93784 625.34
862.060982 927.032
862.184143 808.327
862.307321 291.668
862.430516 1261.21
862.553729 1179.6
862.67696 1664.42
862.800209 1530.74
862.923475 292.342
863.046758 2070.81
863.170059 1734.6
863.293378 292.822
863.416715 2150.32
863.540069 1842.07
863.66344 293.276
863.78683 1984.54
863.910237 1477.01
864.033661 293.694
864.157103 1295.58
864.280563 712.766
864.404041 520.576
864.527536 313.92
864.651048 294.416
864.774579 294.539
864.898127 1842.84
865.021693 294.851
865.145276 294.987
865.268877 2281.93
865.392496 2382.26
865.516132 348.32
865.639786 2437.8
865.763458 2877.68
865.887147 348.9
866.010854 400.924
866.134579 2533.7
866.258321 3076.41
866.382081 296.426
866.505859 296.571
866.629654 2565.65
866.753467 2896.11
866.877298 296.996
867.001146 358.669
867.125013 2197.68
867.248896 1166.33
867.372798 1593.85
867.496717 297.715
867.620654 297.855
867.744609 1730.56
867.868581 1868.06
867.992571 298.287
868.116579 298.431
868.240605 1297.03
868.364648 1350.67
868.488709 298.859
868.612787 319.477
868.736884 299.146
868.860998 885.191
868.98513 960.197
869.10928 299.524
869.233447 299.677
869.357632 414.346
869.481835 517.804
869.606055 688.63
869.730294 300.286
869.85455 300.432
869.978823 457.73
870.103115 300.706
870.227424 734.883
870.351751 543.802
870.476096 316.516
870.600459 389.995
870.724839 301.424
870.849237 381.298
870.973653 691.211
871.098087 611.861
871.222539 301.995
871.347008 342.826
871.471495 335.618
871.596 302.435
871.720522 302.573
871.845063 316.587
871.969621 329.784
872.094197 323.363
872.218791 303.075
872.343402 303.166
872.468032 303.269
872.592679 303.364
872.717344 303.463
872.842027 303.558
872.966727 486.028
873.091446 303.759
873.216182 303.846
873.340936 303.956
873.465708 304.052
873.590498 304.152
873.715305 304.245
873.840131 304.279
873.964974 417.274
874.089835 304.539
874.214714 383.604
874.33961 453.785
874.464525 304.83
874.589457 393.433
874.714408 305.029
874.839376 305.128
874.964362 342.261
875.089366 305.27
875.214387 476.818
875.339427 305.521
875.464484 305.619
875.58956 305.717
875.714653 305.812
875.839764 305.91
875.964893 306.001
876.09004 4126.64
876.215204 2048.27
876.340387 10624.8
876.465587 2047.57
876.590805 785.412
876.716042 306.582
876.841296 4850.38
876.966568 306.765
877.091858 13989.7
877.217165 909.919
877.342491 362.045
877.467835 307.17
877.593196 307.276
877.718576 414.913
877.843973 6725.95
877.969388 307.577
878.094821 14860.8
878.220272 307.563
878.345741 307.831
878.471228 307.901
878.596733 308.065
878.722256 308.107
878.847797 308.189
878.973355 308.277
879.098932 308.457
879.224527 749.978
879.350139 6334.67
879.475769 308.65
879.601418 308.849
879.727084 308.947
879.852768 309.045
879.978471 309.143
880.104191 309.239
880.229929 309.089
880.355685 332.636
880.481459 347.924
880.607251 309.241
880.733061 309.667
880.858889 309.82
880.984735 309.928
881.110599 708.886
881.236481 884.741
881.362381 309.778
881.488299 310.218
881.614235 310.417
881.740189 310.516
881.866161 310.614
881.99215 310.71
882.118158 310.489
882.244184 310.239
882.370228 310.987
882.49629 310.938
882.62237 311.2
882.748468 4497.73
882.874584 311.398
883.000718 36635.2
883.12687 311.593
883.25304 391.035
883.379228 1021.74
883.505434 2460.25
883.631658 700.503
883.7579 501.043
883.88416 14804.5
884.010438 618.181
884.136734 312.163
884.263049 312.469
884.389381 312.574
884.515731 312.673
884.6421 312.77
884.768486 784.843
884.894891 401.031
885.021313 313.018
885.147754 2646.02
885.274213 2566.16
885.40069 313.297
885.527184 312.954
885.653697 341.546
885.780228 313.651
885.906777 313.487
886.033345 312.265
886.15993 322.189
886.286533 332.403
886.413154 640.681
886.539794 833.766
886.666452 327.121
886.793127 314.237
886.919821 1006.65
887.046533 10107.3
887.173263 314.405
887.300011 314.824
887.426777 327.548
887.553562 315.011
887.680364 315.131
887.807184 315.23
887.934023 315.274
888.06088 315.197
888.187755 312.513
888.314648 315.584
888.441559 315.028
888.568488 315.812
888.695436 377.729
888.822401 29430.4
888.949385 316.061
889.076387 504.698
889.203407 514.265
889.330445 316.415
889.457501 316.513
889.584576 316.41
889.711668 461.155
889.838779 602.178
889.965908 446.139
890.093055 316.56
890.22022 316.994
890.347404 315.995
890.474605 317.3
890.601825 12295.4
890.729063 527.005
890.856319 370.55
890.983593 316.565
891.110886 693.908
891.238196 594.416
891.365525 317.392
891.492872 318.093
891.620237 318.196
891.747621 375.899
891.875022 362.691
892.002442 315.53
892.12988 318.433
892.257337 31804.1
892.384811 599.471
892.512304 338.548
892.639814 454.643
892.767344 318.952
892.894891 572.907
893.022456 789.782
893.15004 342.864
893.277642 425.278
893.405262 336.092
893.532901 356.279
893.660557 435.467
893.788232 389.57
893.915925 461.6
894.043637 342.878
894.171367 411.512
894.299114 313.054
894.426881 334.942
894.554665 10695.6
894.682468 319.196
894.810289 331.053
894.938128 320.535
895.065985 325.304
895.193861 318.567
895.321755 318.739
895.449667 305.791
895.577598 320.442
895.705546 282.72
895.833513 337.198
895.961499 319.739
896.089502 26403.3
896.217524 364.166
896.345565 320.614
896.473623 283.955
896.6017 348.04
896.729795 357.652
896.857908 291.694
896.98604 321.414
897.11419 366.937
897.242358 401.071
897.370545 817.846
897.49875 313.625
897.626973 347.296
897.755215 358.448
897.883475 315.763
898.011753 449.622
898.14005 475.197
898.268364 266.03
898.396698 690.358
898.525049 525.533
898.653419 322.662
898.781807 761.071
898.910214 308.332
899.038639 7099.41
899.167082 292.736
899.295544 279.268
899.424024 668.191
899.552522 642.183
899.681039 323.402
899.809574 323.601
899.938127 323.862
900.066699 336.149
900.195289 312.188
900.323898 7291.99
900.452524 7430.42
900.58117 275.238
900.709833 314.345
900.838515 323.072
900.967216 284.744
901.095935 313.979
901.224672 323.232
901.353427 317.641
901.482201 285.077
901.610994 323.4
901.739805 324.552
901.868634 252.575
901.997481 294.196
902.126347 323.541
902.255232 324.887
902.384134 659.505
902.513056 274.707
902.641995 324.109
902.770953 294.795
902.89993 299.397
903.028925 384.321
903.157938 491.809
903.28697 385.051
903.41602 393.238
903.545089 326.822
903.674176 325.64
903.803281 325.592
903.932405 327.555
904.061548 3917.35
904.190709 324.18
904.319888 321.562
904.449086 320.125
904.578302 467.472
904.707537 328.068
904.83679 328.208
904.966062 322.049
905.095352 325.619
905.22466 7201.49
905.353987 350.099
905.483333 349.315
905.612697 346.425
905.742079 328.431
905.87148 442.337
906.0009 404.907
906.130338 340.024
906.259794 315.684
906.389269 338.02
906.518762 312.322
906.648274 567.605
906.777805 530.436
906.907354 329.343
907.036921 326.822
907.166507 648.672
907.296112 588.097
907.425735 268.704
907.555376 323.131
907.685036 316.019
907.814715 364.045
907.944412 330.504
908.074127 328.342
908.203862 309.849
908.333614 315.516
908.463385 333.191
908.593175 389.707
908.722983 329.401
908.85281 307.282
908.982656 267.655
909.11252 330.368
909.242402 351.797
909.372303 347.61
909.502223 2318.75
909.632161 532.742
909.762118 315.998
909.892093 364.145
910.022087 378.185
910.152099 372.332
910.28213 266.953
910.41218 329.615
910.542248 3621.16
910.672335 368.055
910.80244 293.728
910.932564 300.225
911.062707 315.43
911.192868 332.251
911.323047 346.924
911.453246 332.716
911.583463 330.642
911.713698 332.178
911.843952 324.59
911.974225 317.685
912.104516 255.216
912.234826 327.647
912.365155 332.413
912.495502 334.066
912.625868 326.41
912.756252 328.343
912.886655 332.713
913.017077 321.186
913.147517 313.136
913.277976 263.985
913.408454 328.206
913.53895 322.947
913.669465 434.516
913.799999 296.232
913.930551 351.206
914.061122 333.422
914.191711 391.638
914.322319 327.203
914.452946 333.419
914.583592 327.901
914.714256 341.387
914.844939 332.344
914.97564 400.836
915.10636 331.552
915.237099 321.612
915.367856 1171.1
915.498633 1063.81
915.629427 312.796
915.760241 435.088
915.891073 583.714
916.021924 335.396
916.152794 540.794
916.283682 1249.91
916.414589 1240.81
916.545515 331.749
916.676459 327.966
916.807422 337.45
916.938404 333.188
917.069405 315.647
917.200424 329.541
917.331462 333.869
917.462519 322.913
917.593594 308.017
917.724688 279.718
917.855801 346.177
917.986933 310.244
918.118083 327.543
918.249252 337.227
918.38044 329.039
918.511647 336.575
918.642872 309.556
918.774116 313.434
918.905379 336.115
919.036661 337.643
919.167961 339.47
919.29928 334.194
919.430618 334.142
919.561974 326.448
919.69335 338.275
919.824744 288.222
919.956157 338.847
920.087589 339.119
920.219039 363.816
920.350508 339.495
920.481996 340.633
920.613503 340.323
920.745029 364.798
920.876573 331.171
921.008136 332.225
921.139718 371.251
921.271319 373.11
921.402939 340.797
921.534577 330.678
921.666234 361.189
921.79791 334.46
921.929605 1436.32
922.061319 334.615
922.193051 341.296
922.324803 340.906
922.456573 335.303
922.588362 342.081
922.720169 1335.56
922.851996 1064.12
922.983841 342.176
923.115706 337.928
923.247589 333.093
923.379491 339.204
923.511411 334.891
923.643351 342.062
923.775309 326.315
923.907287 341.282
924.039283 329.135
924.171298 331.299
924.303332 336.996
924.435385 342.224
924.567456 334.567
924.699547 327.219
924.831656 324.879
924.963784 341.239
925.095932 343.68
925.228098 337.019
925.360282 323.96
925.492486 342.069
925.624709 338.411
925.75695 339.656
925.889211 342.951
926.02149 343.271
926.153788 338.158
926.286106 324.673
926.418442 333.669
926.550797 339.069
926.68317 344.232
926.815563 341.558
926.947975 343.107
927.080405 344.23
927.212855 337.308
927.345323 343.296
927.477811 338.25
927.610317 330.164
927.742842 337.497
927.875386 339.839
928.00795 336.756
928.140532 291.851
928.273133 312.076
928.405753 341.265
928.538391 338.892
928.671049 329.457
928.803726 313.53
928.936422 318.417
929.069136 332.021
929.20187 329.492
929.334623 325.851
929.467394 337.022
929.600185 335.138
929.732994 291.316
929.865823 340.59
929.99867 288.906
930.131537 328.092
930.264422 287.81
930.397326 283.311
930.53025 340.377
930.663192 275.059
930.796154 4744.7
930.929134 8230.27
931.062133 1439.13
931.195152 2122.15
931.328189 1150.67
931.461246 316.941
931.594321 20634.3
931.727415 278.964
931.860529 174.964
931.993661 901.429
932.126813 246.413
932.259983 324.111
932.393173 323.708
932.526381 3354.41
932.659609 16617.7
932.792855 136.898
932.926121 329.46
933.059406 242.789
933.192709 335.435
933.326032 446.264
933.459374 289.053
933.592735 199.012
933.726115 210.113
933.859514 262.605
933.992932 5363.14
934.126369 213.693
934.259825 261.061
934.3933 315.655
934.526795 124.414
934.660308 107.27
934.79384 150.448
934.927392 301.783
935.060962 344.882
935.194552 361.59
935.328161 317.406
935.461789 330.924
935.595436 145.24
935.729102 162.846
935.862787 322.219
935.996491 159.498
936.130214 155.092
936.263957 326.56
936.397718 314.167
936.531499 336.036
936.665299 313.582
936.799118 233.924
936.932956 206.434
937.066813 329.28
937.200689 180.721
937.334585 204.593
937.468499 209.286
937.602433 326.834
937.736385 4228.32
937.870357 40419.3
938.004348 169.768
938.138359 307.78
938.272388 249.881
938.406436 143.893
938.540504 1664.59
938.674591 329.472
938.808697 333.816
938.942822 460.084
939.076966 310.304
939.21113 349.498
939.345312 341.611
939.479514 315.721
939.613735 346.544
939.747975 336.425
939.882234 333.185
940.016513 941.624
940.15081 265.634
940.285127 311.134
940.419463 6248.85
940.553819 324.202
940.688193 315.061
940.822587 340.308
940.957 315.538
941.091432 333.2
941.225883 264.057
941.360353 252.112
941.494843 338.621
941.629352 316.398
941.76388 349.545
941.898427 544.48
942.032994 221.436
942.167579 4775.34
942.302184 4652.28
942.436809 2162.68
942.571452 347.289
942.706115 342.259
942.840797 309.085
942.975498 140.441
943.110218 161.073
943.244958 295.054
943.379717 261.214
943.514495 347.815
943.649292 350.277
943.784109 349.444
943.918945 334.206
944.0538 164.74
944.188675 27471.3
944.323568 98.2335
944.458481 332.05
944.593414 231.68
944.728365 314.054
944.863336 284.916
944.998326 946.332
945.133336 323.675
945.268364 300.472
945.403412 350.559
945.53848 346.615
945.673566 210.886
945.808672 261.872
945.943797 265.945
946.078942 11831.9
946.214105 215.855
946.349289 159.873
946.484491 325.417
946.619713 343.447
946.754954 300.198
946.890214 343.838
947.025494 318.707
947.160793 214.781
947.296111 315.364
947.431449 378.815
947.566806 348.414
947.702182 252.219
947.837578 290.852
947.972993 27265.7
948.108427 423.876
948.243881 220.829
948.379354 174.249
948.514847 252.314
948.650358 348.525
948.78589 339.162
948.92144 324.87
949.05701 334.453
949.192599 350.398
949.328208 356.314
949.463836 345.116
949.599483 226.368
949.73515 199.366
949.870836 336.959
950.006542 241.058
950.142267 319.818
950.278011 212.536
950.413775 139.82
950.549558 10092.4
950.68536 350.44
950.821182 327.561
950.957023 357.073
951.092884 353.712
951.228764 357.164
951.364664 339.462
951.500583 344.504
951.636521 355.929
951.772479 343.734
951.908456 230.369
952.044453 281.453
952.180469 16950.6
952.316504 331.702
952.452559 178.563
952.588634 313.023
952.724727 289.759
952.860841 349.96
952.996973 320.002
953.133125 248.854
953.269297 336.977
953.405488 331.883
953.541699 349.336
953.677929 352.85
953.814178 263.096
953.950447 333.328
954.086735 325.694
954.223043 360.216
954.35937 294.385
954.495717 355.561
954.632084 179.431
954.768469 306.138
954.904875 316.305
955.041299 356.779
955.177743 329.699
955.314207 340.957
955.45069 3958.55
955.587193 2912.73
955.723715 293.844
955.860257 322.784
955.996818 239.45
956.133399 331.953
956.269999 364.158
956.406619 362.737
956.543258 295.318
956.679917 300.986
956.816595 280.419
956.953293 12229.7
957.090011 2177.47
957.226747 332.828
957.363504 295.597
957.50028 356.933
957.637075 366.279
957.77389 358.617
957.910725 346.327
958.047579 363.243
958.184453 317.048
958.321346 233.812
958.458259 308.057
958.595191 362.617
958.732143 362.744
958.869115 345.937
959.006106 336.142
959.143117 247.224
959.280147 301.399
959.417197 287.642
959.554266 304.269
959.691355 306.289
959.828464 360.234
959.965592 335.341
960.10274 300.941
960.239907 353.842
960.377094 352.871
960.5143 368.75
960.651526 343.988
960.788772 271.293
960.926038 332.083
961.063322 3254.93
961.200627 343.063
961.337951 339.064
961.475295 369.04
961.612658 355.863
961.750042 296.502
961.887444 362.671
962.024867 331.624
962.162308 359.44
962.29977 3477.69
962.437251 1479.6
962.574752 315.666
962.712273 347.046
962.849813 284.993
962.987373 363.776
963.124952 345.492
963.262551 365.542
963.40017 371.81
963.537808 371.423
963.675466 368.03
963.813144 337.588
963.950842 266.458
964.088559 330.289
964.226295 354.388
964.364052 339.016
964.501828 370.018
964.639624 363.547
964.777439 263.759
964.915275 324.765
965.053129 366.126
965.191004 356.75
965.328898 367.968
965.466812 383.295
965.604746 527.069
965.742699 355.013
965.880672 459.372
966.018665 351.454
966.156678 1201.6
966.29471 333.476
966.432762 311.888
966.570834 747.663
966.708925 333.688
966.847036 370.152
966.985167 351.084
967.123318 4814.23
967.261488 318.103
967.399678 356.541
967.537888 376.392
967.676118 2042
967.814367 376.21
967.952636 376.574
968.090925 376.87
968.229233 1477.21
968.367562 1447.2
968.50591 9691.49
968.644278 374.936
968.782665 376.241
968.921073 369.617
969.0595 374.775
969.197947 374.535
969.336414 4770.03
969.4749 359.757
969.613406 377.207
969.751932 371.03
969.890478 378.294
970.029044 371.904
970.16763 19877.3
970.306235 367.101
970.44486 328.767
970.583505 379.036
970.722169 378.771
970.860854 376.714
970.999558 379.631
971.138282 358.799
971.277026 378.91
971.41579 8501.11
971.554574 377.884
971.693377 376.382
971.8322 324.274
971.971044 378.575
972.109906 380.318
972.248789 25278.2
972.387692 379.701
972.526614 353.495
972.665557 354.78
972.804519 374.329
972.943501 376.097
973.082503 373.66
973.221524 379.84
973.360566 361.354
973.499627 381.348
973.638709 380.303
973.77781 700.381
973.916931 327.213
974.056072 9370.83
974.195233 379.292
974.334413 381.278
974.473614 377.927
974.612834 310.382
974.752075 714.741
974.891335 725.455
975.030615 380.271
975.169915 320.493
975.309235 379.5
975.448575 382.72
975.587935 350.225
975.727314 369.33
975.866714 372.829
976.006133 320.928
976.145573 372.64
976.285032 383.306
976.424511 371.963
976.56401 333.437
976.70353 377.995
976.843069 364.078
976.982628 384.213
977.122207 375.471
977.261805 384.539
977.401424 384.703
977.541063 383.981
977.680722 363.826
977.8204 383.431
977.960099 370.82
978.099817 382.42
978.239556 363.698
978.379314 383.936
978.519093 331.858
978.658891 384.177
978.79871 384.691
978.938548 371.787
979.078406 385.165
979.218285 7420.89
979.358183 57324.6
979.498101 379.681
979.63804 344.344
979.777998 381.326
979.917976 2557.91
980.057975 385.705
980.197993 22623
980.338031 384.287
980.478089 349.575
980.618168 372.696
980.758266 385.892
980.898384 386.824
981.038523 1296.44
981.178681 385.294
981.31886 386.761
981.459058 7702.57
981.599276 378.224
981.739515 387.931
981.879773 459.454
982.020052 461.994
982.160351 387.886
982.300669 388.894
982.441008 381.617
982.581367 387.487
982.721745 647.776
982.862144 360.185
983.002563 387.973
983.143002 2341.04
983.283461 388.839
983.42394 373.681
983.564439 389.134
983.704959 389.964
983.845498 386.977
983.986057 389.719
984.126637 389.499
984.267236 388.305
984.407856 390.43
984.548496 381.066
984.689156 456.273
984.829836 388.682
984.970536 388.508
985.111256 15585.9
985.251996 387.626
985.392756 389.208
985.533537 390.163
985.674337 391.135
985.815158 391.192
985.955999 389.269
986.09686 391.856
986.237741 391.962
986.378642 391.223
986.519563 392.341
986.660505 392.227
986.801466 390.621
986.942448 392.093
987.08345 390.3
987.224472 407.219
987.365514 390.847
987.506576 50000.7
987.647659 385.406
987.788761 392.061
987.929884 393.397
988.071027 391.308
988.21219 392.678
988.353373 393.532
988.494577 393.884
988.6358 393.933
988.777044 402.751
988.918308 404.483
989.059592 393.828
989.200897 394.125
989.342221 394.228
989.483566 394.241
989.624931 393.601
989.766316 18564.7
989.907721 410.198
990.049146 396.47
990.190592 390.645
990.332058 399.369
990.473544 400.642
990.615051 395.47
990.756577 395.036
990.898124 395.663
991.039691 394.776
991.181278 395.33
991.322885 395.313
991.464513 395.823
991.606161 396.148
991.747829 51339
991.889518 396.327
992.031226 396.611
992.172955 396.253
992.314704 395.763
992.456474 396.94
992.598263 396.603
992.740073 397.07
992.881903 393.576
993.023754 395.592
993.165624 396.588
993.307515 397.154
993.449426 397.486
993.591358 397.715
993.73331 398.844
993.875282 397.798
994.017274 398.174
994.159287 398.06
994.30132 398.067
994.443373 17596.9
994.585446 398.614
994.72754 7129.85
994.869654 28169.2
995.011788 5466.31
995.153943 2570.5
995.296118 1520.99
995.438313 398.972
995.580529 399.275
995.722765 399.48
995.865021 22443.8
996.007298 4470.38
996.149595 399.783
996.291912 1459.04
996.43425 32912.1
996.576608 400.19
996.718986 400.265
996.861384 400.259
997.003803 399.577
997.146243 400.566
997.288702 402.019
997.431182 402.237
997.573683 7001.18
997.716203 400.996
997.858744 401.171
998.001306 502.895
998.143888 581.755
998.28649 404.354
998.429112 401.648
998.571755 401.741
998.714419 401.057
998.857102 401.882
998.999806 401.975
999.142531 401.743
999.285276 402.259
999.428041 402.406
999.570827 400.994
999.713633 402.468
999.856459 402.755
999.999306 402.607
1000.14217 401.84
1000.28506 7407.35
1000.42797 425.776
1000.5709 441.147
1000.71385 403.437
1000.85682 403.548
1000.99981 403.659
1001.14282 403.768
1001.28585 403.281
1001.4289 5034.84
1001.57197 46600.9
1001.71506 12893.8
1001.85817 403.648
1002.00131 400.019
1002.14446 403.406
1002.28763 404.638
1002.43083 1888.66
1002.57404 403.386
1002.71728 404.931
1002.86053 18117.6
1003.00381 405.222
1003.1471 405.336
1003.29042 405.448
1003.43376 409.734
1003.57712 412.65
1003.7205 405.763
1003.86389 405.846
1004.00731 1050.43
1004.15075 406.033
1004.29421 406.211
1004.43769 405.024
1004.5812 7320.2
1004.72472 406.568
1004.86826 406.649
1005.01182 406.557
1005.15541 406.537
1005.29901 407.013
1005.44263 407.046
1005.58628 405.578
1005.72995 407.306
1005.87363 407.46
1006.01734 407.569
1006.16106 3040.63
1006.30481 9960.09
1006.44858 407.872
1006.59237 407.94
1006.73618 407.582
1006.88001 408.243
1007.02386 2845.92
1007.16773 408.162
1007.31162 2970.68
1007.45553 2969.6
1007.59946 408.518
1007.74342 408.844
1007.88739 409.007
1008.03139 407.118
1008.1754 409.14
1008.31944 409.355
1008.46349 31394.3
1008.60757 409.567
1008.75167 409.698
1008.89578 409.639
1009.03992 408.031
1009.18408 409.42
1009.32826 511.688
1009.47246 408.083
1009.61668 408.647
1009.76092 409.571
1009.90518 1166.55
1010.04947 410.272
1010.19377 410.28
1010.33809 410.237
1010.48244 410.926
1010.6268 13024.6
1010.77119 411.198
1010.91559 410.949
1011.06002 411.455
1011.20447 411.478
1011.34894 411.713
1011.49342 411.691
1011.63793 411.948
1011.78246 411.454
1011.92701 411.962
1012.07159 412.187
1012.21618 410.553
1012.36079 412.501
1012.50542 1154.52
1012.65008 36927.4
1012.79475 444.638
1012.93945 412.961
1013.08416 413.063
1013.2289 412.436
1013.37366 413.297
1013.51844 1932.69
1013.66323 440.379
1013.80805 413.644
1013.95289 413.757
1014.09775 413.868
1014.24264 413.961
1014.38754 413.289
1014.53246 494.261
1014.67741 945
1014.82237 553.745
1014.96735 571.145
1015.11236 1547.84
1015.25739 1544.26
1015.40243 414.871
1015.5475 12767
1015.69259 416.308
1015.8377 415.304
1015.98283 415.331
1016.12798 8599.34
1016.27315 415.561
1016.41834 415.674
1016.56356 415.786
1016.70879 4557.93
1016.85405 415.434
1016.99932 424.017
1017.14462 416.235
1017.28993 416.346
1017.43527 50969.5
1017.58063 416.494
1017.72601 463.678
1017.87141 416.715
1018.01683 416.912
1018.16227 417.03
1018.30773 5515.64
1018.45321 5611.23
1018.59872 417.07
1018.74424 417.465
1018.88979 417.594
1019.03535 417.707
1019.18094 22511.5
1019.32655 22614.9
1019.47218 416.503
1019.61783 418.145
1019.7635 418.272
1019.90919 418.387
1020.0549 418.499
1020.20063 688.764
1020.34639 418.384
1020.49216 418.476
1020.63795 18496.9
1020.78377 419.065
1020.92961 419.142
1021.07546 419.29
1021.22134 7845.38
1021.36724 54866.1
1021.51316 419.552
1021.6591 418.909
1021.80506 419.261
1021.95105 421.343
1022.09705 420.085
1022.24307 420.198
1022.38912 420.312
1022.53519 430.053
1022.68127 420.534
1022.82738 17293
1022.97351 419.179
1023.11966 420.863
1023.26583 421.386
1023.41202 19984.4
1023.55823 420.513
1023.70447 421.129
1023.85072 419.275
1023.99699 419.861
1024.14329 421.63
1024.28961 421.782
1024.43594 421.898
1024.5823 422.012
1024.72868 422.125
1024.87508 422.209
1025.0215 422.332
1025.16795 422.454
1025.31441 422.164
1025.46089 422.687
1025.6074 422.799
1025.75392 422.211
1025.90047 423.008
1026.04704 423.144
1026.19363 423.234
1026.34024 422.783
1026.48687 423.481
1026.63352 449.627
1026.78019 423.714
1026.92688 423.827
1027.0736 423.938
1027.22033 423.875
1027.36709 4302.91
1027.51387 444.452
1027.66066 424.001
1027.80748 424.501
1027.95432 425.279
1028.10119 425.418
1028.24807 424.848
1028.39497 424.96
1028.54189 424.7
1028.68884 15611.7
1028.83581 4544.61
1028.98279 145445
1029.1298 425.515
1029.27683 425.641
1029.42388 425.483
1029.57095 5028.61
1029.71804 425.983
1029.86516 50475.4
1030.01229 425.899
1030.15945 426.316
1030.30662 426.437
1030.45382 426.551
1030.60104 426.646
1030.74828 2200.25
1030.89554 426.747
1031.04282 426.914
1031.19012 16744.1
1031.33744 427.227
1031.48479 426.782
1031.63215 427.454
1031.77954 427.538
1031.92695 427.665
1032.07438 428.109
1032.22183 428.838
1032.3693 429.567
1032.51679 1043.11
1032.6643 431.026
1032.81184 431.755
1032.95939 5006.09
1033.10697 433.213
1033.25456 433.94
1033.40218 434.312
1033.54982 435.4
1033.69748 436.04
1033.84516 436.853
1033.99287 437.59
1034.14059 438.32
1034.28834 2043.11
1034.4361 441.139
1034.58389 440.501
1034.7317 615.077
1034.87953 441.968
1035.02738 31098.2
1035.17525 1515.01
1035.32314 444.17
1035.47105 444.891
1035.61899 1990.47
1035.76695 1990.8
1035.91492 447.046
1036.06292 447.671
1036.21094 448.532
1036.35898 449.274
1036.50704 449.923
1036.65513 450.638
1036.80323 451.346
1036.95136 452.085
1037.0995 452.777
1037.24767 453.567
1037.39586 474.525
1037.54407 102526
1037.6923 455.79
1037.84055 559.333
1037.98883 560.212
1038.13712 458.036
1038.28544 458.777
1038.43377 459.486
1038.58213 460.131
1038.73051 460.947
1038.87891 461.662
1039.02733 462.352
1039.17578 463.097
1039.32424 463.884
1039.47273 464.535
1039.62123 465.281
1039.76976 466.067
1039.91831 38605
1040.06688 467.483
1040.21547 468.285
1040.36409 468.951
1040.51272 469.678
1040.66138 478.564
1040.81005 471.16
1040.95875 488.146
1041.10747 488.83
1041.25621 473.337
1041.40497 474.028
1041.55375 474.87
1041.70256 475.573
1041.85138 1017.24
1042.00023 477.044
1042.1491 107656
1042.29799 478.425
1042.4469 479.257
1042.59583 479.979
1042.74478 480.715
1042.89375 481.44
1043.04275 972.576
1043.19177 973.223
1043.34081 483.627
1043.48986 484.375
1043.63895 485.113
1043.78805 485.839
1043.93717 486.575
1044.08631 486.321
1044.23548 486.742
1044.38467 484.458
1044.53388 484.873
1044.68311 485.25
1044.83236 481.61
1044.98163 480.68
1045.13092 479.746
1045.28024 29585.4
1045.42957 477.861
1045.57893 476.851
1045.72831 475.974
1045.87771 475.031
1046.02713 474.087
1046.17658 473.144
1046.32604 472.2
1046.47553 471.257
1046.62503 470.313
1046.77456 469.369
1046.92411 468.425
1047.07368 467.463
1047.22328 70988.5
1047.37289 465.563
1047.52253 464.634
1047.67218 463.694
1047.82186 462.749
1047.97156 461.793
1048.12128 460.853
1048.27102 459.905
1048.42079 458.956
1048.57057 458.007
1048.72038 457.057
1048.87021 456.102
1049.02006 455.035
1049.16993 453.77
1049.31982 452.868
1049.46973 451.907
1049.61967 451.094
1049.76962 449.97
1049.9196 449.211
1050.0696 523.147
1050.21962 522.202
1050.36966 446.461
1050.51973 445.535
1050.66981 444.642
1050.81992 443.709
1050.97005 442.706
1051.1202 8247.93
1051.27037 8395.15
1051.42056 568.606
1051.57077 438.765
1051.72101 437.755
1051.87126 436.761
1052.02154 436.013
1052.17184 434.869
1052.32216 433.969
1052.47251 433.058
1052.62287 431.988
1052.77325 34053.9
1052.92366 430.071
1053.07409 429.2
1053.22454 428.225
1053.37501 427.205
1053.5255 426.362
1053.67602 425.28
1053.82655 424.421
1053.97711 423.352
1054.12769 422.473
1054.27829 421.42
1054.42891 420.521
1054.57956 419.472
1054.73022 418.551
1054.88091 417.536
1055.03162 416.604
1055.18235 415.586
1055.3331 414.639
1055.48387 413.639
1055.63466 412.659
1055.78548 411.658
1055.93632 410.664
1056.08718 409.697
1056.23806 408.709
1056.38896 407.735
1056.53988 406.738
1056.69083 405.753
1056.84179 404.765
1056.99278 403.751
1057.14379 402.755
1057.29482 401.786
1057.44588 627.674
1057.59695 6347.71
1057.74805 398.816
1057.89916 397.829
1058.0503 396.756
1058.20146 395.85
1058.35265 394.863
1058.50385 393.835
1058.65508 392.891
1058.80632 6444.32
1058.95759 6441.91
1059.10888 406.976
1059.26019 406.091
1059.41153 387.982
1059.56288 387.011
1059.71426 386.044
1059.86566 385.078
1060.01708 384.108
1060.16852 410.655
1060.31998 409.818
1060.47147 381.199
1060.62298 380.262
1060.7745 379.299
1060.92605 378.337
1061.07763 377.326
1061.22922 376.238
1061.38083 375.451
1061.53247 374.488
1061.68413 373.523
1061.83581 372.56
1061.98751 371.595
1062.13923 372.497
1062.29098 373.335
1062.44275 374.354
1062.59453 375.701
1062.74634 376.48
1062.89818 377.783
1063.05003 378.731
1063.2019 379.928
1063.3538 380.797
1063.50572 381.839
1063.65766 383.001
1063.80962 384.029
1063.96161 385.096
1064.11361 386.316
1064.26564 493.299
1064.41769 2126.83
1064.56976 389.536
1064.72185 389.733
1064.87396 391.381
1065.0261 392.591
1065.17826 393.447
1065.33044 394.547
1065.48264 2075.48
1065.63486 2076.09
1065.7871 398.113
1065.93937 398.653
1066.09166 400.352
1066.24397 401.228
1066.3963 402.535
1066.54865 403.328
1066.70103 404.769
1066.85342 405.826
1067.00584 406.304
1067.15828 408.137
1067.31075 409.375
1067.46323 410.338
1067.61574 410.634
1067.76826 411.847
1067.92081 413.231
1068.07338 414.339
1068.22598 415.759
1068.37859 417.378
1068.53123 418.185
1068.68388 1382.84
1068.83656 742.873
1068.98927 660.645
1069.14199 3984.76
1069.29474 458.345
1069.4475 2346.83
1069.60029 426.863
1069.7531 428.072
1069.90594 433.754
1070.05879 12522.1
1070.21167 429.838
1070.36457 436.705
1070.51749 433.99
1070.67043 6498.71
1070.82339 436.302
1070.97638 437.359
1071.12938 438.508
1071.28241 7965.77
1071.43547 24265.9
1071.58854 451.421
1071.74163 859.048
1071.89475 443.756
1072.04789 445.2
1072.20105 446.874
1072.35423 14754.1
1072.50744 448.972
1072.66066 814.28
1072.81391 817.746
1072.96718 451.742
1073.12047 59844.7
1073.27379 454.886
1073.42712 456.229
1073.58048 457.297
1073.73386 458.551
1073.88726 459.708
1074.04069 460.865
1074.19413 461.721
1074.3476 463.156
1074.50109 464.162
1074.6546 24539.1
1074.80813 462.884
1074.96169 466.662
1075.11526 468.926
1075.26886 469.904
1075.42248 71505.8
1075.57613 472.143
1075.72979 473.355
1075.88348 474.669
1076.03719 475.817
1076.19092 476.939
1076.34467 477.66
1076.49844 478.188
1076.65224 480.387
1076.80606 481.536
1076.9599 482.671
1077.11376 482.852
1077.26765 484.787
1077.42155 489.494
1077.57548 25117.5
1077.72943 488.3
1077.8834 489.472
1078.0374 490.64
1078.19141 490.414
1078.34545 492.822
1078.49951 492.064
1078.65359 495.191
1078.8077 496.343
1078.96183 497.48
1079.11597 498.615
1079.27014 499.713
1079.42434 500.576
1079.57855 576.356
1079.73279 502.823
1079.88705 503.56
1080.04133 505.084
1080.19563 494.05
1080.34995 568.845
1080.5043 571.824
1080.65867 507.609
1080.81306 511.008
1080.96747 510.331
1081.12191 513.268
1081.27637 513.245
1081.43084 506.585
1081.58535 516.167
1081.73987 517.852
1081.89441 516.435
1082.04898 518.563
1082.20357 518.053
1082.35818 516.863
1082.51282 515.065
1082.66747 514.334
1082.82215 513.074
1082.97685 511.807
1083.13157 510.536
1083.28632 19942.3
1083.44108 180317
1083.59587 502.702
1083.75068 500.184
1083.90551 504.137
1084.06037 6382.77
1084.21524 501.465
1084.37014 498.324
1084.52506 66031.2
1084.68001 494.085
1084.83497 496.445
1084.98996 495.181
1085.14497 493.776
1085.3 490.099
1085.45506 2811.64
1085.61013 489.194
1085.76523 488.886
1085.92035 22536
1086.07549 472.988
1086.23066 460.923
1086.38585 473.725
1086.54105 482.211
1086.69629 479.142
1086.85154 479.976
1087.00681 478.074
1087.16211 468.135
1087.31743 475.789
1087.47277 1307.16
1087.62814 473.578
1087.78353 468.879
1087.93893 6917.25
1088.09437 469.752
1088.24982 468.478
1088.40529 466.745
1088.56079 461.805
1088.71631 473.028
1088.87185 471.298
1089.02742 460.956
1089.183 451.521
1089.33861 458.437
1089.49424 449.951
1089.6499 456.665
1089.80557 39598.7
1089.96127 454.373
1090.11699 448.9
1090.27273 450.42
1090.4285 1802.24
1090.58428 446.244
1090.74009 443.042
1090.89592 446.639
1091.05178 445.429
1091.20765 442.999
1091.36355 442.714
1091.51947 441.564
1091.67541 440.307
1091.83138 438.351
1091.98736 436.827
1092.14337 436.434
1092.2994 435.076
1092.45546 432.661
1092.61154 128315
1092.76763 465.485
1092.92375 425.616
1093.0799 428.451
1093.23606 436.189
1093.39225 737.42
1093.54846 424.781
1093.70469 423.106
1093.86095 416.001
1094.01722 420.949
1094.17352 418.97
1094.32985 416.324
1094.48619 412.897
1094.64256 412.239
1094.79894 407.713
1094.95536 394.826
1095.11179 49562.5
1095.26824 409.3
1095.42472 408.163
1095.58122 408.025
1095.73775 401.016
1095.89429 389.739
1096.05086 391.697
1096.20745 395.84
1096.36406 405.74
1096.5207 397.57
1096.67735 398.975
1096.83403 453.498
1096.99073 397.15
1097.14746 394.756
1097.3042 392.876
1097.46097 69840.2
1097.61776 69673.2
1097.77458 385.49
1097.93141 369.735
1098.08827 380.973
1098.24515 381.423
1098.40206 384.673
1098.55898 377.264
1098.71593 378.086
1098.8729 369.926
1099.0299 375.938
1099.18691 371.215
1099.34395 375.23
1099.50101 367.449
1099.65809 342.933
1099.8152 364.345
1099.97232 357.59
1100.12947 369.307
1100.28665 367.035
1100.44384 365.07
1100.60106 353.49
1100.7583 368.7
1100.91556 38786
1101.07285 341.243
1101.23015 356.206
1101.38748 359.74
1101.54484 358.807
1101.70221 352.258
1101.85961 341.509
1102.01703 341.39
1102.17447 337.755
1102.33194 347.135
1102.48942 350.578
1102.64693 330.473
1102.80446 351.385
1102.96202 93988.1
1103.1196 328.411
1103.2772 342.252
1103.43482 348.747
1103.59246 340.679
1103.75013 348.994
1103.90782 350.029
1104.06553 346.644
1104.22327 327.087
1104.38103 318.939
1104.53881 334.56
1104.69661 348.276
1104.85443 334.368
1105.01228 344.565
1105.17015 346.874
1105.32804 344.706
1105.48596 332.374
1105.6439 326.508
1105.80186 341.296
1105.95984 337.445
1106.11785 328.885
1106.27587 308.837
1106.43392 332.691
1106.592 333.657
1106.75009 316.68
1106.90821 343.468
1107.06635 343.536
1107.22452 21666.4
1107.3827 337.709
1107.54091 336.873
1107.69914 330.512
1107.8574 336.877
1108.01567 312.447
1108.17397 318.052
1108.3323 321.418
1108.49064 309.787
1108.64901 335.853
1108.8074 301.896
1108.96581 47162.5
1109.12424 328.102
1109.2827 327.102
1109.44118 319.95
1109.59968 331.682
1109.75821 328.134
1109.91676 319.402
1110.07533 333.456
1110.23392 330.021
1110.39254 333.237
1110.55118 253.003
1110.70984 322.574
1110.86852 286.892
1111.02723 331.147
1111.18596 293.017
1111.34471 317.383
1111.50349 232.718
1111.66228 327.618
1111.8211 331.086
1111.97995 331.024
1112.13881 312.169
1112.2977 310.812
1112.45661 317.198
1112.61555 312.313
1112.7745 323.2
1112.93348 266.391
1113.09248 271.33
1113.25151 237.417
1113.41056 284.071
1113.56963 303.188
1113.72872 246.398
1113.88783 252.05
1114.04697 9174.72
1114.20613 309.105
1114.36532 314.604
1114.52452 324.664
1114.68375 312.329
1114.843 295.28
1115.00228 306.943
1115.16158 99.1348
1115.3209 301.103
1115.48024 4133.57
1115.63961 13276.7
1115.79899 278.961
1115.9584 304.185
1116.11784 302.926
1116.2773 211.359
1116.43678 195.346
1116.59628 124.773
1116.7558 176.106
1116.91535 214.389
1117.07492 290.343
1117.23451 195.285
1117.39413 248.531
1117.55377 180.819
1117.71343 312.349
1117.87312 312.642
1118.03282 283.791
1118.19255 298.104
1118.35231 148.06
1118.51208 275.183
1118.67188 306.42
1118.8317 253.29
1118.99155 132.503
1119.15142 238.425
1119.31131 179.889
1119.47122 169.86
1119.63116 296.428
1119.79111 297.081
1119.9511 202.275
1120.1111 254.853
1120.27113 256.872
1120.43118 101.504
1120.59125 287.035
1120.75135 272.811
1120.91147 296.527
1121.07161 300.586
1121.23177 275.458
1121.39196 568.807
1121.55217 1581.58
1121.7124 287.352
1121.87266 202.579
1122.03294 84.1569
1122.19324 234.276
1122.35356 141.886
1122.51391 127.015
1122.67428 1232.06
1122.83468 1263.52
1122.99509 267.873
1123.15553 291.019
1123.31599 293.964
1123.47648 269.656
1123.63699 87.2576
1123.79752 61.0613
1123.95807 242.485
1124.11865 289.981
1124.27925 290.807
1124.43987 204.26
1124.60052 273.945
1124.76119 287.222
1124.92188 275.09
1125.08259 235.105
1125.24333 257.239
1125.40409 69.2412
1125.56487 57.6192
1125.72568 106.129
1125.88651 260.706
1126.04736 278.853
1126.20824 128.554
1126.36914 237.208
1126.53006 244.569
1126.691 293.163
1126.85197 224.23
1127.01296 304.382
1127.17397 283.944
1127.33501 194.436
1127.49607 189.093
1127.65715 276.494
1127.81826 123.444
1127.97939 180.557
1128.14054 295.074
1128.30171 299.043
1128.46291 175.541
1128.62413 246.116
1128.78537 1437.63
1128.94664 161.819
1129.10793 5401.34
1129.26924 350.419
1129.43058 931.003
1129.59194 2644.23
1129.75332 67.1301
1129.91472 14331.6
1130.07615 269.792
1130.2376 154.901
1130.39908 291.28
1130.56057 7066.03
1130.72209 2385.02
1130.88364 280.666
1131.0452 312.469
1131.20679 19362.2
1131.3684 19343.9
1131.53004 239.027
1131.6917 321.145
1131.85338 325.335
1132.01509 309.386
1132.17681 289.466
1132.33856 16975.7
1132.50034 180.992
1132.66214 307.156
1132.82396 315.796
1132.9858 285.226
1133.14767 65368.1
1133.30956 182.075
1133.47147 232.895
1133.63341 143.076
1133.79536 229.517
1133.95735 288.446
1134.11935 112.706
1134.28138 228.423
1134.44343 224.725
1134.60551 23.076
1134.76761 35.9443
1134.92973 49.3948
1135.09187 179.327
1135.25404 121.704
1135.41623 58680.2
1135.57844 324.42
1135.74068 320.595
1135.90294 277.782
1136.06522 58.6425
1136.22753 243.939
1136.38986 317.09
1136.55221 325.556
1136.71459 339.114
1136.87699 321.241
1137.03941 341.272
1137.20186 343.109
1137.36433 335.379
1137.52682 307.325
1137.68933 9561.19
1137.85187 408.899
1138.01443 409.057
1138.17702 340.514
1138.33963 332.047
1138.50226 142.242
1138.66491 301.071
1138.82759 332.471
1138.99029 575.462
1139.15302 353.69
1139.31577 355.497
1139.47854 356.459
1139.64133 346.223
1139.80415 311.213
1139.96699 183.353
1140.12985 299.934
1140.29274 351.937
1140.45565 356.667
1140.61859 352.32
1140.78154 285.616
1140.94452 154.903
1141.10753 341.082
1141.27055 350.099
1141.4336 294.321
1141.59668 217.05
1141.75977 352.621
1141.9229 345.711
1142.08604 337.031
1142.24921 218.817
1142.4124 354.269
1142.57561 338.502
1142.73885 347.975
1142.90211 309.691
1143.06539 336.719
1143.2287 356.362
1143.39203 357.779
1143.55538 351.286
1143.71876 256.568
1143.88216 281.726
1144.04558 185893
1144.20903 291.388
1144.3725 81.6226
1144.53599 310.819
1144.69951 6651.79
1144.86305 304.626
1145.02661 187.82
1145.1902 70904.8
1145.35381 282.519
1145.51744 191.531
1145.6811 339.818
1145.84478 289.766
1146.00848 239.716
1146.17221 344.349
1146.33596 2705.01
1146.49973 267.964
1146.66353 119.158
1146.82735 23717.5
1146.9912 245.547
1147.15506 282.062
1147.31896 220.859
1147.48287 253.875
1147.64681 170.1
1147.81077 345.859
1147.97475 360.524
1148.13876 368.987
1148.30279 357.673
1148.46685 1315.78
1148.63093 312.497
1148.79503 194.382
1148.95915 4965.73
1149.1233 3162.97
1149.28747 350.29
1149.45167 346.624
1149.61589 207.851
1149.78013 150.378
1149.9444 271.548
1150.10869 254.3
1150.273 332.613
1150.43734 336.484
1150.6017 349.144
1150.76608 300.009
1150.93049 3249.56
1151.09492 633.788
1151.25937 239.123
1151.42385 309.501
1151.58835 355.601
1151.75287 2382.83
1151.91742 316.747
1152.08199 186.83
1152.24659 340.023
1152.41121 347.251
1152.57585 201.113
1152.74051 119.427
1152.9052 339.873
1153.06992 355.381
1153.23465 354.81
1153.39941 340.583
1153.56419 322.479
1153.729 272.324
1153.89383 138008
1154.05868 218.489
1154.22356 322.182
1154.38846 262.721
1154.55339 353.064
1154.71834 354.162
1154.88331 344.444
1155.0483 688.247
1155.21332 355.534
1155.37836 302.418
1155.54343 349.188
1155.70852 226.987
1155.87363 278.46
1156.03877 349.985
1156.20393 350.623
1156.36911 345.376
1156.53432 33587.3
1156.69955 350.864
1156.8648 351.084
1157.03008 358.003
1157.19538 304.187
1157.36071 340.128
1157.52606 340.242
1157.69143 342.823
1157.85683 205.726
1158.02225 337.862
1158.18769 357.934
1158.35316 361.457
1158.51865 321.307
1158.68416 357.519
1158.8497 389.245
1159.01526 231.507
1159.18085 148373
1159.34646 353.701
1159.51209 343.388
1159.67775 294.225
1159.84343 348.594
1160.00913 354.768
1160.17486 322.981
1160.34061 258.184
1160.50639 323.817
1160.67218 341.716
1160.83801 323.942
1161.00385 356.611
1161.16972 348.341
1161.33561 346.032
1161.50153 312.917
1161.66747 341.293
1161.83344 356.785
1161.99942 349.731
1162.16544 350.518
1162.33147 280.01
1162.49753 339.993
1162.66361 354.488
1162.82972 43990.6
1162.99585 359.219
1163.162 355.675
1163.32818 360.752
1163.49438 361.2
1163.66061 332.87
1163.82686 320.561
1163.99313 357.8
1164.15943 350.452
1164.32575 352.381
1164.49209 355.459
1164.65846 354.639
1164.82485 353.653
1164.99127 49087.2
1165.15771 55083.9
1165.32417 328.209
1165.49066 357.167
1165.65717 354.394
1165.8237 288.839
1165.99026 345.515
1166.15684 350.03
1166.32345 356.287
1166.49008 348.605
1166.65673 346.717
1166.82341 324.849
1166.99011 351.308
1167.15683 339.657
1167.32358 357.248
1167.49035 356.785
1167.65715 347.565
1167.82397 344.546
1167.99081 351.225
1168.15768 359.124
1168.32457 338.131
1168.49149 339.22
1168.65843 356.519
1168.82539 348.15
1168.99238 357.84
1169.15939 357.459
1169.32642 340.424
1169.49348 339.318
1169.66057 26378.6
1169.82767 357.906
1169.9948 355.593
1170.16196 352.612
1170.32913 341.908
1170.49634 346.276
1170.66356 351.214
1170.83081 355.696
1170.99808 333.757
1171.16538 353.93
1171.3327 356.161
1171.50005 29007.1
1171.66742 28977.4
1171.83481 342.015
1172.00223 356.518
1172.16967 357.831
1172.33713 325.413
1172.50462 357.151
1172.67213 355.518
1172.83967 345.632
1173.00723 352.243
1173.17482 345.498
1173.34242 357.979
1173.51006 354.307
1173.67771 336.816
1173.84539 321.707
1174.0131 319.475
1174.18083 319.021
1174.34858 339.696
1174.51635 355.607
1174.68415 354.881
1174.85198 347.913
1175.01983 352.245
1175.1877 351.442
1175.35559 325.994
1175.52351 328.02
1175.69146 348.914
1175.85943 347.265
1176.02742 349.205
1176.19543 348.395
1176.36347 347.033
1176.53154 346.525
1176.69962 340.097
1176.86774 345.348
1177.03587 11781.8
1177.20403 340.833
1177.37222 329.659
1177.54042 307.225
1177.70866 294.062
1177.87691 323.037
1178.04519 339.517
1178.2135 338.717
1178.38183 308.631
1178.55018 336.303
1178.71855 11807.9
1178.88695 11814.4
1179.05538 335.562
1179.22383 334.278
1179.3923 333.258
1179.5608 290.668
1179.72932 318.778
1179.89786 325.177
1180.06643 327.853
1180.23502 330.171
1180.40364 327.03
1180.57228 328.273
1180.74095 325.252
1180.90964 317.873
1181.07835 325.528
1181.24709 320.639
1181.41585 310.525
1181.58464 318.879
1181.75344 290.432
1181.92228 258.088
1182.09114 303.016
1182.26002 276.868
1182.42893 319.548
1182.59786 310.11
1182.76681 308.3
1182.93579 317.875
1183.10479 314.856
1183.27382 315.694
1183.44287 315.898
1183.61195 310.296
1183.78105 309.302
1183.95017 309.878
1184.11932 312.2
1184.28849 265.93
1184.45769 306.705
1184.62691 307.852
1184.79615 288.901
1184.96542 285.314
1185.13471 4144.38
1185.30403 307.198
1185.47337 303.921
1185.64274 305.093
1185.81212 304.781
1185.98154 297.868
1186.15098 302.947
1186.32044 302.812
1186.48993 290.173
1186.65944 7514.96
1186.82897 291.787
1186.99853 297.786
1187.16811 295.848
1187.33772 297.306
1187.50735 290.884
1187.67701 246.705
1187.84669 293.391
1188.01639 290.469
1188.18612 251.235
1188.35588 281.928
1188.52565 273.688
1188.69545 291.395
1188.86528 290.409
1189.03513 289.357
1189.205 265.759
1189.3749 287.935
1189.54483 288.303
1189.71477 287.842
1189.88474 284.666
1190.05474 285.317
1190.22476 271.012
1190.3948 282.87
1190.56487 281.735
1190.73497 279.936
1190.90508 272.812
1191.07522 273.129
1191.24539 277.885
1191.41558 278.635
1191.58579 279.58
1191.75603 276.307
1191.9263 265.239
1192.09658 276.427
1192.26689 276.571
1192.43723 275.749
1192.60759 272.528
1192.77798 270.382
1192.94838 273.466
1193.11882 272.209
1193.28928 269.397
1193.45976 241.641
1193.63026 264.705
1193.8008 1303.94
1193.97135 268.983
1194.14193 267.518
1194.31253 267.326
1194.48316 259.951
1194.65381 263.038
1194.82449 264.819
1194.99519 261.047
1195.16592 2011.16
1195.33667 262.235
1195.50744 256.042
1195.67824 253.16
1195.84907 253.151
1196.01991 259.343
1196.19079 258.2
1196.36168 248.759
1196.5326 254.691
1196.70355 899.357
1196.87452 7198.99
1197.04551 1153.63
1197.21653 252.648
1197.38758 3949.11
1197.55864 14067.3
1197.72973 248.898
1197.90085 251.331
1198.07199 250.661
1198.24316 4616.19
1198.41435 4650.17
1198.58556 275.185
1198.7568 224.864
1198.92806 40615.5
1199.09935 238.024
1199.27066 231.372
1199.442 244.418
1199.61336 243.077
1199.78475 235.142
1199.95616 18706.8
1200.12759 233.109
1200.29905 254.21
1200.47053 235.121
1200.64204 71707.1
1200.81357 225.769
1200.98513 236.619
1201.15671 235.447
1201.32832 227.815
1201.49995 233.024
1201.6716 233.893
1201.84328 205.628
1202.01499 231.816
1202.18672 232.238
1202.35847 28771.1
1202.53025 229.765
1202.70205 226.277
1202.87388 228.788
1203.04573 79363.5
1203.2176 445.031
1203.38951 217.665
1203.56143 220.806
1203.73338 182.707
1203.90535 201.43
1204.07735 212.851
1204.24938 398.228
1204.42142 393.494
1204.5935 218.655
1204.76559 218.149
1204.93772 216.305
1205.10986 192.492
1205.28203 217.662
1205.45423 215.853
1205.62645 28025
1205.79869 216.086
1205.97096 213.558
1206.14326 213.143
1206.31557 213.376
1206.48792 202.518
1206.66029 209.718
1206.83268 211.149
1207.00509 200.936
1207.17754 206.087
1207.35 205.04
1207.52249 198.779
1207.69501 207.475
1207.86755 204.317
1208.04011 202.211
1208.2127 191.977
1208.38532 205.548
1208.55796 201.285
1208.73062 204.742
1208.90331 203.384
1209.07602 193.399
1209.24876 195.206
1209.42152 203.52
1209.59431 202.968
1209.76712 204.115
1209.93995 189.453
1210.11282 203.122
1210.2857 202.654
1210.45861 203.328
1210.63155 202.598
1210.80451 203.087
1210.97749 202.021
1211.1505 200.886
1211.32353 182.535
1211.49659 200.442
1211.66968 199.494
1211.84278 199.407
1212.01592 20676.8
1212.18907 192460
1212.36226 190.874
1212.53546 200.002
1212.7087 199.764
1212.88195 200.528
1213.05523 6593.62
1213.22854 236.799
1213.40187 200.232
1213.57523 74232.5
1213.74861 197.59
1213.92201 196.094
1214.09544 192.413
1214.26889 227.851
1214.44237 221.985
1214.61588 196.145
1214.78941 2814.53
1214.96296 190.425
1215.13654 196.406
1215.31014 197.818
1215.48377 26261
1215.65742 197.717
1215.8311 197.616
1216.0048 197.447
1216.17853 196.155
1216.35228 194.755
1216.52606 196.413
1216.69986 194.815
1216.87369 189.326
1217.04754 195.188
1217.22142 1204.24
1217.39532 212.346
1217.56924 195.712
1217.7432 195.287
1217.91717 7930.09
1218.09117 976.737
1218.2652 192.961
1218.43925 192.732
1218.61332 191.929
1218.78742 192.577
1218.96155 189.568
1219.1357 188.658
1219.30987 189.328
1219.48407 191.477
1219.6583 41385.2
1219.83255 190.43
1220.00682 191.79
1220.18112 192.327
1220.35544 526.489
1220.52979 192.107
1220.70417 191.673
1220.87856 191.62
1221.05299 2534.74
1221.22744 191.515
1221.40191 187.467
1221.57641 187.543
1221.75093 183.876
1221.92548 189.106
1222.10005 190.075
1222.27465 189.328
1222.44928 188.562
1222.62392 183.437
1222.7986 188.102
1222.97329 137853
1223.14802 186.652
1223.32277 189.156
1223.49754 186.948
1223.67234 184.455
1223.84716 187.755
1224.02201 190.656
1224.19688 280.963
1224.37178 186.726
1224.5467 185.573
1224.72165 187.663
1224.89662 739.98
1225.07162 190.076
1225.24664 185.898
1225.42169 183.699
1225.59676 186.101
1225.77186 54119.6
1225.94698 186.18
1226.12213 183.841
1226.2973 185.799
1226.4725 185.345
1226.64772 183.619
1226.82297 184.743
1226.99824 178.836
1227.17354 183.891
1227.34886 183.235
1227.52421 183.243
1227.69959 184.074
1227.87498 183.665
1228.05041 183.241
1228.22586 183.576
1228.40133 183.146
1228.57683 204.961
1228.75235 154409
1228.9279 181.354
1229.10347 182.65
1229.27907 290.731
1229.4547 179.865
1229.63034 181.173
1229.80602 181.895
1229.98172 181.62
1230.15744 180.14
1230.33319 180.985
1230.50897 181.088
1230.68477 180.901
1230.86059 180.436
1231.03644 180.502
1231.21231 179.841
1231.38821 180.037
1231.56414 179.893
1231.74009 179.016
1231.91607 179.416
1232.09207 179.343
1232.26809 179.13
1232.44414 178.933
1232.62022 45001
1232.79632 177.468
1232.97245 178.186
1233.1486 177.367
1233.32477 176.368
1233.50098 177.246
1233.6772 182.079
1233.85346 177.316
1234.02973 177.11
1234.20604 176.921
1234.38236 194.816
1234.55872 176.393
1234.73509 176.288
1234.9115 176.025
1235.08793 55615.2
1235.26438 55985
1235.44086 175.339
1235.61736 175.31
1235.79389 174.98
1235.97045 174.939
1236.14703 175.313
1236.32363 174.552
1236.50026 174.91
1236.67692 173.258
1236.8536 173.741
1237.0303 173.631
1237.20704 173.331
1237.38379 173.344
1237.56057 173.115
1237.73738 172.896
1237.91421 172.7
1238.09107 172.516
1238.26795 172.655
1238.44486 172.672
1238.62179 172.469
1238.79875 172.734
1238.97574 172.794
1239.15275 172.793
1239.32978 172.844
1239.50684 173.973
1239.68393 172.894
1239.86104 172.895
1240.03817 27368.4
1240.21533 174.07
1240.39252 172.965
1240.56973 172.827
1240.74697 172.646
1240.92423 172.983
1241.10152 172.866
1241.27883 186.095
1241.45617 173.13
1241.63353 173.141
1241.81092 173.138
1241.98834 173.198
1242.16577 173.23
1242.34324 60539.7
1242.52073 219.936
1242.69825 173.283
1242.87579 173.308
1243.05335 173.337
1243.23094 173.357
1243.40856 173.382
1243.5862 173.407
1243.76387 173.414
1243.94157 325.756
1244.11928 173.485
1244.29703 173.307
1244.4748 173.523
1244.65259 173.55
1244.83041 173.565
1245.00826 173.588
1245.18613 173.6
1245.36403 630.529
1245.54195 173.64
1245.71989 173.659
1245.89787 173.68
1246.07587 173.702
1246.25389 173.7
1246.43194 173.74
1246.61001 173.523
1246.78811 1412.83
1246.96624 173.784
1247.14439 173.812
1247.32256 173.825
1247.50077 173.819
1247.67899 173.864
1247.85725 173.871
1248.03552 173.604
1248.21383 15710.3
1248.39216 173.912
1248.57051 173.926
1248.74889 173.914
1248.9273 173.952
1249.10573 173.967
1249.28418 173.983
1249.46267 173.983
1249.64117 6547.22
1249.81971 174.018
1249.99826 174.021
1250.17685 12875.8
1250.35546 12877.7
1250.53409 174.043
1250.71275 174.032
1250.89144 174.064
1251.07015 11759.2
1251.24889 174.01
1251.42765 174.092
1251.60644 174.091
1251.78525 173.995
1251.96409 174.094
1252.14296 174.096
1252.32185 174.108
1252.50076 174.068
1252.6797 18245.8
1252.85867 174.083
1253.03766 174.108
1253.21668 174.105
1253.39573 174.104
1253.5748 174.106
1253.75389 174.041
1253.93301 174.103
1254.11216 171.885
1254.29133 23003.1
1254.47053 174.053
1254.64975 174.066
1254.829 174.039
1255.00827 174.057
1255.18757 174.039
1255.3669 173.945
1255.54625 173.961
1255.72562 23616.4
1255.90503 171.896
1256.08445 173.993
1256.26391 181.591
1256.44339 173.953
1256.62289 203.08
1256.80242 173.923
1256.98198 198.587
1257.16156 4759.19
1257.34117 171.368
1257.5208 22107
1257.70046 173.777
1257.88014 460.211
1258.05985 953.752
1258.23959 173.684
1258.41935 1019.22
1258.59914 2236.7
1258.77895 4393.45
1258.95879 6607.36
1259.13865 19276
1259.31854 4930.6
1259.49846 5302.65
1259.6784 172.863
1259.85836 9497.55
1260.03836 173.236
1260.21838 10303
1260.39842 15172.5
1260.57849 172.629
1260.75859 30272
1260.93871 172.573
1261.11885 19415.9
1261.29903 172.811
1261.47922 18937.3
1261.65945 172.688
1261.8397 19398.3
1262.01997 172.494
1262.20028 18856
1262.3806 172.149
1262.56096 31766.7
1262.74133 171.974
1262.92174 12949.9
1263.10217 172.202
1263.28263 13480.1
1263.46311 171.935
1263.64362 9164.08
1263.82415 172.062
1264.00471 10430.7
1264.18529 261.859
1264.3659 23888.7
1264.54654 171.93
1264.7272 171.638
1264.90789 11634.7
1265.0886 163.788
1265.26934 3976.64
1265.45011 172.142
1265.6309 12104.2
1265.81172 171.305
1265.99256 28204
1266.17343 169.235
1266.35433 172.094
1266.53525 20350.1
1266.71619 803.498
1266.89717 6089.85
1267.07816 171.969
1267.25919 172.311
1267.44024 35036.5
1267.62131 170.81
1267.80242 8706.71
1267.98354 172.577
1268.1647 1289.7
1268.34588 76103.6
1268.52708 61639.4
1268.70831 56342.2
1268.88957 40382.9
1269.07085 35350.1
1269.25216 36327.3
1269.4335 20373.9
1269.61486 25471.8
1269.79624 62288.7
1269.97766 26496.4
1270.15909 15562
1270.34056 8675.46
1270.52205 1317.55
1270.70356 25260
1270.88511 596.107
1271.06667 33205.1
1271.24827 315.039
1271.42989 706.588
1271.61153 213.81
1271.79321 16256.6
1271.9749 24406.8
1272.15663 174.919
1272.33838 221.563
1272.52015 26042.1
1272.70195 14516.5
1272.88378 175.287
1273.06563 22719
1273.24751 178.778
1273.42942 176.303
1273.61135 175.993
1273.79331 15594.7
1273.97529 176.249
1274.1573 21149.8
1274.33934 176.647
1274.5214 31860.9
1274.70349 3313.23
1274.8856 22566.5
1275.06774 2045.09
1275.2499 45558.3
1275.4321 177.502
1275.61431 177.613
1275.79656 177.687
1275.97883 22382.1
1276.16112 9055.85
1276.34344 66118.7
1276.52579 25794.7
1276.70817 178.218
1276.89057 178.288
1277.07299 20459.6
1277.25544 326.959
1277.43792 19338.1
1277.62043 9095.22
1277.80296 8957.78
1277.98551 178.925
1278.1681 33086
1278.3507 75382
1278.53334 13944.3
1278.716 430.379
1278.89869 179.359
1279.0814 179.364
1279.26414 178.1
1279.4469 9228.6
1279.62969 179.193
1279.81251 8324.11
1279.99535 194.451
1280.17822 26267.3
1280.36112 24769.8
1280.54404 179.787
1280.72699 70972.4
1280.90996 4271.31
1281.09296 179.94
1281.27599 180.345
1281.45904 180.416
1281.64212 180.567
1281.82523 180.625
1282.00836 2152.27
1282.19151 1938.21
1282.3747 179.925
1282.55791 19733.3
1282.74114 180.963
1282.9244 181.027
1283.10769 181.708
1283.29101 929.535
1283.47435 25833.7
1283.65771 181.168
1283.84111 181.34
1284.02453 181.4
1284.20797 180.838
1284.39144 181.5
1284.57494 14273.1
1284.75846 411.729
1284.94201 181.643
1285.12559 181.526
1285.30919 181.83
1285.49282 181.885
1285.67648 181.904
1285.86016 260.629
1286.04386 182.035
1286.2276 253.65
1286.41136 181.958
1286.59514 8784.2
1286.77896 181.806
1286.9628 182.156
1287.14666 204.384
1287.33055 180.867
1287.51447 202.619
1287.69841 182.532
1287.88238 182.569
1288.06638 181.988
1288.2504 206.154
1288.43445 210.105
1288.61853 187.848
1288.80263 4798.61
1288.98676 180.332
1289.17091 182.235
1289.35509 181.659
1289.5393 228.513
1289.72353 228.606
1289.90779 183.032
1290.09207 183.133
1290.27639 18164.5
1290.46073 183.08
1290.64509 169304
1290.82948 183.238
1291.0139 2333.59
1291.19834 183.421
1291.38281 183.366
1291.56731 5850.45
1291.75183 178.804
1291.93638 183.058
1292.12096 66691.3
1292.30556 182.739
1292.49019 183.57
1292.67484 180.809
1292.85952 183.764
1293.04423 183.189
1293.22896 1078.7
1293.41372 183.954
1293.59851 2588.63
1293.78332 182.477
1293.96816 183.48
1294.15303 182.965
1294.33792 25216.8
1294.52284 183.954
1294.70778 183.643
1294.89276 182.805
1295.07775 183.492
1295.26278 184.272
1295.44783 516.208
1295.63291 180.21
1295.81801 181.555
1296.00314 183.916
1296.1883 183.634
1296.37348 1142.52
1296.55869 183.495
1296.74392 182.581
1296.92919 182.325
1297.11448 4368.44
1297.29979 4350.81
1297.48513 179.218
1297.6705 298.458
1297.8559 183.276
1298.04132 183.889
1298.22676 183.404
1298.41224 185.046
1298.59774 36066.5
1298.78327 185.236
1298.96882 185.262
1299.1544 185.103
1299.34001 184.967
1299.52564 175.097
1299.7113 179.814
1299.89699 220.497
1300.0827 522.403
1300.26844 192.182
1300.4542 175.917
1300.64 179.572
1300.82582 2623.7
1301.01166 173.901
1301.19753 183.753
1301.38343 191.403
1301.56936 192.276
1301.75531 185.528
1301.94129 185.69
1302.12729 120775
1302.31332 188.813
1302.49938 185.897
1302.68547 184.585
1302.87158 175.327
1303.05772 186.056
1303.24388 185.851
1303.43007 170.519
1303.61629 184.997
1303.80253 186.12
1303.9888 176.052
1304.1751 174.652
1304.36143 261.245
1304.54778 178.917
1304.73415 189.067
1304.92056 185.404
1305.10699 576.118
1305.29344 48539.4
1305.47993 180.858
1305.66644 183.395
1305.85298 184.909
1306.03954 186.698
1306.22613 186.688
1306.41275 183.889
1306.59939 154.586
1306.78606 180.881
1306.97276 181.242
1307.15948 175.687
1307.34623 185
1307.53301 186.61
1307.71981 186.933
1307.90664 186.524
1308.0935 152.279
1308.28038 185.797
1308.4673 138508
1308.65423 186.582
1308.8412 185.155
1309.02819 184.364
1309.2152 185.85
1309.40225 211.613
1309.58932 167.841
1309.77642 170.832
1309.96354 168.103
1310.15069 240.138
1310.33787 261.989
1310.52507 157.124
1310.71231 179.09
1310.89956 184.114
1311.08685 183.061
1311.27416 187.257
1311.4615 187.593
1311.64886 187.827
1311.83626 187.847
1312.02367 187.274
1312.21112 167.83
1312.39859 181.753
1312.58609 184.048
1312.77362 41315
1312.96117 165.182
1313.14875 185.985
1313.33635 179.755
1313.52399 185.159
1313.71165 125.894
1313.89933 185.788
1314.08705 184.5
1314.27479 175.939
1314.46255 181.507
1314.65035 183.202
1314.83817 166.681
1315.02601 181.314
1315.21389 185.958
1315.40179 177.62
1315.58972 26650.7
1315.77767 50605.5
1315.96565 186.635
1316.15366 206.556
1316.3417 188.008
1316.52976 188.132
1316.71785 187.736
1316.90597 151.716
1317.09411 172.472
1317.28228 186.845
1317.47048 188.583
1317.6587 188.487
1317.84695 188.645
1318.03523 186.746
1318.22353 175.696
1318.41186 165.667
1318.60022 180.36
1318.7886 156.002
1318.97702 186.088
1319.16546 188.41
1319.35392 160.077
1319.54241 178.151
1319.73093 190.618
1319.91948 188.973
1320.10805 127.917
1320.29665 176.101
1320.48528 172.672
1320.67393 193.057
1320.86262 193.189
1321.05132 25664.5
1321.24006 193.564
1321.42882 150.559
1321.61761 193.797
1321.80643 196.651
1321.99527 196.222
1322.18414 185.982
1322.37304 193.248
1322.56196 183.053
1322.75091 194.714
1322.93989 166.122
1323.12889 168.228
1323.31793 173.65
1323.50698 199.998
1323.69607 58682.3
1323.88518 200.766
1324.07432 151.465
1324.26349 180.713
1324.45268 197.553
1324.64191 203.492
1324.83115 205.453
1325.02043 204.856
1325.20973 203.718
1325.39906 186.773
1325.58842 187.898
1325.7778 206.921
1325.96721 196.511
1326.15665 208.747
1326.34611 194.829
1326.5356 203.319
1326.72512 209.821
1326.91467 181.488
1327.10424 175.25
1327.29384 207.282
1327.48347 204.722
1327.67312 212.108
1327.8628 182.951
1328.05251 211.555
1328.24225 199.681
1328.43201 149.537
1328.6218 210.995
1328.81161 147.23
1329.00146 210.692
1329.19133 151.353
1329.38123 203.693
1329.57115 209.753
1329.76111 211.626
1329.95108 207.074
1330.14109 6120.15
1330.33112 214.224
1330.52119 217.838
1330.71127 197.712
1330.90139 186.031
1331.09153 202.806
1331.2817 128.624
1331.4719 178.42
1331.66212 199.699
1331.85237 167.89
1332.04265 175.704
1332.23296 221.738
1332.42329 11252.3
1332.61365 7389.86
1332.80404 211.532
1332.99445 202.047
1333.18489 215.28
1333.37536 221.452
1333.56586 191.783
1333.75638 146.98
1333.94693 183.611
1334.13751 186.797
1334.32811 230.23
1334.51874 227.374
1334.7094 215.854
1334.90009 160.297
1335.0908 228.145
1335.28154 231.67
1335.47231 222.419
1335.66311 231.713
1335.85393 195.959
1336.04478 95.0449
1336.23566 221.375
1336.42656 232.539
1336.61749 236.14
1336.80845 235.369
1336.99944 195.488
1337.19045 184.396
1337.38149 205.576
1337.57256 173.156
1337.76366 224.073
1337.95478 155.083
1338.14593 223.639
1338.33711 238.656
1338.52831 240.635
1338.71954 177.582
1338.9108 231.036
1339.10209 238.508
1339.2934 161.618
1339.48474 236.915
1339.67611 244.186
1339.86751 243.292
1340.05893 2537.83
1340.25038 185.391
1340.44186 161.514
1340.63337 190.141
1340.8249 243.609
1341.01646 241.691
1341.20805 236.598
1341.39966 183.503
1341.5913 161.332
1341.78297 226.311
1341.97467 249.084
1342.16639 9346.8
1342.35815 247.809
1342.54992 249.986
1342.74173 187.377
1342.93356 233.469
1343.12543 232.606
1343.31732 204.835
1343.50923 251.024
1343.70117 242.529
1343.89315 150.009
1344.08514 115.933
1344.27717 177.821
1344.46922 158.421
1344.6613 123.997
1344.85341 168.078
1345.04555 252.194
1345.23771 251.385
1345.4299 184.691
1345.62212 151.008
1345.81437 235.523
1346.00664 171.161
1346.19894 215.809
1346.39127 234.556
1346.58362 69.2572
1346.776 217.254
1346.96841 236.763
1347.16085 213.781
1347.35332 221.572
1347.54581 155.148
1347.73833 30.8272
1347.93088 58.8275
1348.12345 123.598
1348.31606 142.88
1348.50869 45.0373
1348.70135 209.808
1348.89403 68.6029
1349.08674 199.807
1349.27948 139.231
1349.47225 243.485
1349.66505 226.233
1349.85787 152.208
1350.05072 189.245
1350.2436 71.8089
1350.43651 30.8975
1350.62944 78.9516
1350.8224 476.676
1351.01539 673.262
1351.2084 174.235
1351.40145 87.43
1351.59452 95.8504
1351.78762 31.8368
1351.98074 97.8103
1352.1739 203.568
1352.36708 116.712
1352.56029 818.797
1352.75352 1103.61
1352.94679 118.981
1353.14008 2.88224
1353.3334 73.9211
1353.52675 142.296
1353.72012 31.0767
1353.91352 154.023
1354.10695 70.1934
1354.30041 8.13456
1354.4939 49.1681
1354.68741 7.74313
1354.88095 8.55405
1355.07452 16.4775
1355.26812 38.1699
1355.46174 100.341
1355.65539 35.3424
1355.84907 0.36682
1356.04278 32.0188
1356.23651 58.3825
1356.43027 98.1644
1356.62406 114.476
1356.81788 111.809
1357.01172 18.2331
1357.2056 13.0493
1357.3995 65.1303
1357.59342 40.0423
1357.78738 1.9135
1357.98136 81.5379
1358.17538 59.745
1358.36941 7.01288
1358.56348 34.9879
1358.75757 23.7448
1358.9517 71.4731
1359.14585 42.9456
1359.34002 19.3444
1359.53423 0.414961
1359.72846 1.4588
1359.92272 34.9212
1360.11701 75.9418
1360.31133 12.032
1360.50567 48.9746
1360.70004 19.174
1360.89444 1.05526
1361.08887 0.814008
1361.28333 12.0765
1361.47781 12.5259
1361.67232 0.4196
1361.86686 2.3608
1362.06142 0.560244
1362.25602 0.677013
1362.45064 0.469833
1362.64529 10.8963
1362.83997 8.56866
1363.03467 28.3938
1363.22941 102.747
1363.42417 45.1246
1363.61896 38.0415
1363.81377 68.3667
1364.00862 17.9838
1364.20349 7.58363
1364.39839 33.6387
1364.59332 0.571711
1364.78827 0.438679
1364.98326 2.57545
1365.17827 21.2453
1365.37331 0.713157
1365.56838 0.516293
1365.76347 38.671
1365.95859 80.3041
1366.15374 60.0716
1366.34892 1350.53
1366.54413 8285.74
1366.73936 21.9566
1366.93463 3.07088
1367.12992 223.4
1367.32524 143.199
1367.52058 197.792
1367.71596 0.993515
1367.91136 0.613955
1368.10679 6.96134
1368.30225 8.71177
1368.49773 1.25764
1368.69324 3.42854
1368.88879 23.1486
1369.08436 50.3286
1369.27995 3169.94
1369.47558 63.5412
1369.67123 53.8556
1369.86691 5.25009
1370.06262 2.3571
1370.25836 29.6354
1370.45412 29.9906
1370.64992 34.8613
1370.84574 2.38161
1371.04159 1.01449
1371.23747 4.28
1371.43337 140.498
1371.6293 559.748
1371.82526 27.2879
1372.02125 9.54075
1372.21727 0.606925
1372.41332 9.01577
1372.60939 56.1678
1372.80549 42.6573
1373.00162 9.86394
1373.19778 52.6086
1373.39396 3.59355
1373.59017 41.3601
1373.78642 78.7344
1373.98268 30.9844
1374.17898 64.0453
1374.37531 25.1491
1374.57166 35.9102
1374.76804 4552.43
1374.96445 0.570489
1375.16089 59.0508
1375.35735 110.973
1375.55385 100.187
1375.75037 48.1482
1375.94692 8.90121
1376.1435 16.5506
1376.3401 77.427
1376.53674 34.7054
1376.7334 58.7272
1376.93009 2.63212
1377.12681 2.58148
1377.32355 37.8556
1377.52033 88.4047
1377.71713 108.059
1377.91396 101.166
1378.11082 52.1565
1378.30771 56.0628
1378.50462 6.55651
1378.70157 0.605315
1378.89854 0.800239
1379.09554 45.3923
1379.29257 37.4705
1379.48962 84.3925
1379.68671 75.6177
1379.88382 70.934
1380.08096 10.3195
1380.27813 8.81298
1380.47532 1.41834
1380.67255 0.657805
1380.8698 0.77913
1381.06708 0.733397
1381.26439 12.7313
1381.46173 57.5808
1381.6591 58.8834
1381.85649 3.65476
1382.05391 8.35703
1382.25136 2696.32
1382.44884 136.445
1382.64635 0.678174
1382.84388 0.6749
1383.04145 0.666747
1383.23904 20.2162
1383.43666 18.9474
1383.6343 668.742
1383.83198 1.5531
1384.02969 9.37866
1384.22742 19634.6
1384.42518 17.6835
1384.62297 47.7441
1384.82079 12.0718
1385.01863 1.7989
1385.2165 5.61185
1385.41441 9.06743
1385.61234 58.2933
1385.8103 6.30622
1386.00828 231.147
1386.2063 63.1023
1386.40434 4.43831
1386.60241 41.755
1386.80051 12971
1386.99864 66.241
1387.1968 63.6764
1387.39498 91.2283
1387.5932 34.7761
1387.79144 3.66244
1387.98971 1.22262
1388.18801 1.00479
1388.38634 0.773262
1388.58469 46.1215
1388.78307 102.431
1388.98149 32.4488
1389.17993 106.954
1389.37839 682.939
1389.57689 98.491
1389.77542 35.442
1389.97397 6.62204
1390.17255 2621.06
1390.37116 2630.9
1390.5698 85.5995
1390.76847 27.9998
1390.96716 29.2035
1391.16589 10276.5
1391.36464 122.528
1391.56342 90.1666
1391.76223 51.6027
1391.96107 46.6439
1392.15993 2.21337
1392.35883 0.810147
1392.55775 0.847531
1392.7567 6.91937
1392.95568 40.9743
1393.15469 87.2474
1393.35372 115.904
1393.55279 138.984
1393.75188 92.1281
1393.951 30.1279
1394.15015 50.2296
1394.34933 91.8366
1394.54854 299.349
1394.74777 8.591
1394.94704 1.33729
1395.14633 56.2031
1395.34565 6.88185
1395.545 0.893828
1395.74438 6.59301
1395.94378 29.4297
1396.14322 25.9526
1396.34268 1.0222
1396.54217 0.907274
1396.74169 15.2008
1396.94124 77.2171
1397.14082 33.3662
1397.34043 34.8961
1397.54006 120.025
1397.73972 1057.62
1397.93941 134.409
1398.13913 39.2742
1398.33888 130.65
1398.53866 23660.9
1398.73847 192.84
1398.9383 106.693
1399.13816 77.3138
1399.33805 46.8502
1399.53797 1.11681
1399.73792 103.709
1399.9379 18.9242
