# Obtained using Skycalc tool from ESO webpage
# Water vapour content 2.5 mm
Wave[nm] Transmission[no-units]
870 0.715176
870.120943 0.943745
870.241902 0.97233
870.362878 0.973238
870.483871 0.973261
870.604881 0.973277
870.725907 0.973278
870.846951 0.973273
870.968011 0.973267
871.089088 0.973281
871.210182 0.973307
871.331293 0.97333
871.45242 0.973348
871.573565 0.973364
871.694726 0.973377
871.815904 0.973391
871.937099 0.973398
872.058311 0.973409
872.17954 0.973424
872.300785 0.973438
872.422047 0.973447
872.543327 0.973459
872.664623 0.973467
872.785936 0.973479
872.907265 0.973493
873.028612 0.9735
873.149976 0.973503
873.271356 0.973522
873.392753 0.97354
873.514168 0.973546
873.635599 0.97351
873.757046 0.973464
873.878511 0.973518
873.999993 0.97357
874.121492 0.973594
874.243007 0.973605
874.364539 0.9736
874.486089 0.973591
874.607655 0.973613
874.729238 0.97364
874.850838 0.973651
874.972455 0.973626
875.094088 0.97359
875.215739 0.973636
875.337407 0.973689
875.459091 0.973709
875.580793 0.973718
875.702511 0.973723
875.824246 0.973717
875.945998 0.973659
876.067767 0.973586
876.189553 0.973627
876.311356 0.973681
876.433176 0.973733
876.555013 0.97376
876.676867 0.97377
876.798738 0.973791
876.920625 0.973789
877.04253 0.973768
877.164451 0.973743
877.28639 0.973736
877.408345 0.97379
877.530318 0.973829
877.652307 0.973851
877.774313 0.973875
877.896336 0.97389
878.018377 0.973876
878.140434 0.973736
878.262508 0.973555
878.384599 0.973658
878.506707 0.973778
878.628832 0.973831
878.750974 0.973775
878.873133 0.973723
878.995309 0.973802
879.117502 0.973923
879.239712 0.973968
879.361939 0.973913
879.484183 0.973845
879.606444 0.973931
879.728722 0.974007
879.851017 0.974024
879.973329 0.974009
880.095658 0.973849
880.218004 0.973664
880.340367 0.973819
880.462747 0.973729
880.585144 0.973449
880.707558 0.973709
880.829989 0.973952
880.952437 0.974046
881.074902 0.974054
881.197384 0.973966
881.319883 0.973654
881.442399 0.97331
881.564933 0.973731
881.687483 0.974093
881.81005 0.974146
881.932634 0.974094
882.055236 0.973765
882.177854 0.973113
882.300489 0.972924
882.423142 0.973507
882.545811 0.973956
882.668498 0.974138
882.791202 0.974204
882.913922 0.974218
883.03666 0.974215
883.159415 0.974111
883.282187 0.973698
883.404976 0.97337
883.527782 0.973798
883.650605 0.973878
883.773445 0.973548
883.896302 0.973752
884.019176 0.973951
884.142068 0.973939
884.264976 0.974131
884.387902 0.97428
884.510844 0.974307
884.633804 0.974281
884.756781 0.974082
884.879775 0.973847
885.002786 0.974043
885.125814 0.97426
885.248859 0.97423
885.371922 0.973863
885.495001 0.973503
885.618098 0.973941
885.741211 0.974136
885.864342 0.972905
885.98749 0.970714
886.110655 0.971004
886.233837 0.97317
886.357036 0.974256
886.480253 0.974403
886.603486 0.974267
886.726737 0.973492
886.850005 0.972688
886.97329 0.973386
887.096592 0.973893
887.219911 0.974097
887.343247 0.974232
887.466601 0.974204
887.589971 0.974352
887.713359 0.974461
887.836764 0.974361
887.960186 0.973856
888.083625 0.971889
888.207082 0.969857
888.330555 0.971734
888.454046 0.973207
888.577554 0.974013
888.701079 0.974478
888.824621 0.974511
888.948181 0.974458
889.071757 0.974464
889.195351 0.9745
889.318962 0.974543
889.44259 0.974432
889.566235 0.974038
889.689898 0.973727
889.813577 0.973432
889.937274 0.972918
890.060988 0.97333
890.18472 0.972891
890.308468 0.972426
890.432234 0.973648
890.556017 0.974526
890.679817 0.974613
890.803634 0.974201
890.927469 0.973403
891.05132 0.973355
891.175189 0.973861
891.299076 0.973861
891.422979 0.974123
891.5469 0.97449
891.670837 0.97419
891.794793 0.97322
891.918765 0.97161
892.042754 0.969933
892.166761 0.971246
892.290785 0.972765
892.414826 0.973733
892.538885 0.974241
892.662961 0.974348
892.787054 0.973757
892.911164 0.972337
893.035291 0.968317
893.159436 0.96045
893.283598 0.960643
893.407777 0.967487
893.531974 0.96695
893.656188 0.962149
893.780419 0.967405
893.904667 0.972902
894.028933 0.973598
894.153216 0.969146
894.277516 0.962714
894.401833 0.963913
894.526168 0.965135
894.65052 0.967801
894.774889 0.963006
894.899276 0.953452
895.02368 0.95849
895.148101 0.960139
895.272539 0.959258
895.396995 0.953002
895.521468 0.944153
895.645959 0.928076
895.770466 0.925144
895.894991 0.950514
896.019534 0.961871
896.144093 0.961419
896.26867 0.963368
896.393264 0.940114
896.517876 0.898826
896.642505 0.894129
896.767151 0.900009
896.891815 0.923835
897.016495 0.956287
897.141194 0.963842
897.265909 0.930219
897.390642 0.885707
897.515392 0.911036
897.64016 0.930444
897.764945 0.932351
897.889747 0.949375
898.014566 0.961776
898.139403 0.931127
898.264258 0.886658
898.389129 0.922387
898.514018 0.962709
898.638925 0.967645
898.763849 0.936132
898.88879 0.858717
899.013748 0.814869
899.138724 0.850071
899.263717 0.844972
899.388728 0.808142
899.513756 0.877357
899.638801 0.949561
899.763864 0.969924
899.888944 0.97238
900.014041 0.964353
900.139156 0.912775
900.264289 0.851666
900.389438 0.896141
900.514605 0.914494
900.63979 0.885655
900.764992 0.919081
900.890211 0.926848
901.015448 0.909564
901.140702 0.930966
901.265973 0.932385
901.391262 0.907196
901.516569 0.932956
901.641893 0.953287
901.767234 0.900709
901.892592 0.828616
902.017968 0.888495
902.143362 0.954506
902.268773 0.964289
902.394201 0.933052
902.519647 0.894452
902.64511 0.910183
902.770591 0.897379
902.896089 0.891119
903.021604 0.933639
903.147137 0.954072
903.272688 0.948049
903.398256 0.93752
903.523841 0.955443
903.649444 0.969074
903.775064 0.969567
903.900702 0.972241
904.026357 0.973491
904.15203 0.96864
904.27772 0.959253
904.403428 0.946598
904.529153 0.936735
904.654895 0.956678
904.780655 0.97144
904.906433 0.969041
905.032228 0.963194
905.15804 0.965982
905.28387 0.965612
905.409718 0.946046
905.535583 0.927816
905.661465 0.950858
905.787365 0.970383
905.913283 0.972835
906.039218 0.970739
906.16517 0.955962
906.29114 0.934422
906.417128 0.93554
906.543133 0.931926
906.669155 0.936273
906.795195 0.957538
906.921253 0.963467
907.047328 0.926063
907.173421 0.879365
907.299531 0.883792
907.425658 0.872587
907.551804 0.899516
907.677966 0.92194
907.804147 0.951774
907.930345 0.965969
908.05656 0.933464
908.182793 0.880297
908.309043 0.883616
908.435311 0.910408
908.561597 0.948757
908.6879 0.958686
908.814221 0.906744
908.940559 0.852544
909.066915 0.905553
909.193288 0.944311
909.319679 0.942913
909.446088 0.930361
909.572514 0.925614
909.698957 0.935337
909.825419 0.94674
909.951897 0.950751
910.078394 0.917774
910.204908 0.876071
910.331439 0.897382
910.457989 0.947054
910.584555 0.96338
910.71114 0.935895
910.837742 0.888656
910.964361 0.882619
911.090998 0.913902
911.217653 0.952887
911.344326 0.96907
911.471015 0.970457
911.597723 0.968745
911.724448 0.962945
911.851191 0.941936
911.977952 0.889253
912.10473 0.848991
912.231525 0.908823
912.358339 0.960723
912.485169 0.969146
912.612018 0.962
912.738884 0.956472
912.865768 0.955572
912.99267 0.937182
913.119589 0.899303
913.246525 0.868367
913.37348 0.887386
913.500452 0.920921
913.627442 0.923394
913.754449 0.875963
913.881474 0.827014
914.008517 0.882187
914.135577 0.946144
914.262655 0.960088
914.389751 0.96035
914.516864 0.955544
914.643995 0.949922
914.771144 0.957289
914.89831 0.964784
915.025494 0.965435
915.152696 0.952787
915.279915 0.926715
915.407152 0.889941
915.534407 0.859752
915.661679 0.863653
915.78897 0.839329
915.916277 0.889704
916.043603 0.949
916.170946 0.950814
916.298307 0.935206
916.425686 0.949408
916.553082 0.95762
916.680496 0.957951
916.807928 0.963519
916.935378 0.953156
917.062845 0.936193
917.19033 0.943392
917.317832 0.951606
917.445353 0.938006
917.572891 0.895731
917.700447 0.847634
917.82802 0.86497
917.955611 0.898217
918.083221 0.933928
918.210847 0.955641
918.338492 0.957558
918.466154 0.956606
918.593834 0.930374
918.721532 0.901937
918.849247 0.935779
918.976981 0.965354
919.104732 0.969414
919.2325 0.964638
919.360287 0.956707
919.488091 0.948496
919.615913 0.940607
919.743753 0.915257
919.871611 0.922053
919.999486 0.953982
920.127379 0.968156
920.25529 0.972359
920.383219 0.974371
920.511166 0.974085
920.63913 0.968056
920.767112 0.95841
920.895112 0.954925
921.023129 0.954934
921.151165 0.959708
921.279218 0.967995
921.407289 0.965468
921.535378 0.949136
921.663485 0.939401
921.791609 0.939745
921.919752 0.935193
922.047912 0.943186
922.17609 0.962694
922.304285 0.968363
922.432499 0.965109
922.56073 0.963938
922.68898 0.956113
922.817247 0.956272
922.945531 0.965126
923.073834 0.964469
923.202155 0.959621
923.330493 0.959614
923.458849 0.961817
923.587223 0.955364
923.715615 0.949053
923.844025 0.955412
923.972453 0.95192
924.100898 0.940209
924.229361 0.950231
924.357843 0.962003
924.486342 0.960795
924.614859 0.950289
924.743393 0.934491
924.871946 0.936279
925.000516 0.95823
925.129105 0.965251
925.257711 0.952633
925.386335 0.941524
925.514977 0.952295
925.643637 0.960735
925.772315 0.965563
925.901011 0.969159
926.029724 0.966398
926.158456 0.951272
926.287205 0.936379
926.415972 0.942876
926.544757 0.956584
926.67356 0.967055
926.802381 0.969289
926.93122 0.967604
927.060077 0.966517
927.188952 0.961997
927.317844 0.961089
927.446755 0.953562
927.575683 0.941615
927.70463 0.947611
927.833594 0.9506
927.962576 0.920956
928.091576 0.875674
928.220594 0.886542
928.34963 0.931304
928.478684 0.947302
928.607756 0.928575
928.736846 0.888371
928.865954 0.892904
928.99508 0.92062
929.124223 0.930182
929.253385 0.928214
929.382565 0.917012
929.511762 0.912008
929.640978 0.895043
929.770211 0.878692
929.899463 0.882497
930.028732 0.862872
930.158019 0.865252
930.287325 0.831219
930.416648 0.83959
930.545989 0.870871
930.675349 0.861962
930.804726 0.89749
930.934121 0.861565
931.063534 0.730792
931.192966 0.701354
931.322415 0.831784
931.451882 0.902388
931.581367 0.890242
931.71087 0.774439
931.840392 0.616498
931.969931 0.602692
932.099488 0.725101
932.229063 0.815714
932.358657 0.837955
932.488268 0.76967
932.617897 0.640482
932.747544 0.589721
932.87721 0.682339
933.006893 0.761153
933.136594 0.843233
933.266314 0.855919
933.396051 0.807013
933.525807 0.718536
933.65558 0.596376
933.785372 0.656932
933.915181 0.717049
934.045009 0.688812
934.174855 0.673897
934.304719 0.74974
934.4346 0.649123
934.5645 0.439488
934.694418 0.417159
934.824354 0.54261
934.954308 0.764336
935.08428 0.90074
935.21427 0.921013
935.344279 0.884165
935.474305 0.755972
935.604349 0.549475
935.734412 0.56204
935.864492 0.660185
935.994591 0.554309
936.124708 0.559613
936.254843 0.764774
936.384995 0.877082
936.515166 0.901027
936.645355 0.833322
936.775563 0.689588
936.905788 0.66357
937.036031 0.720376
937.166293 0.6638
937.296572 0.598417
937.42687 0.57994
937.557186 0.755017
937.68752 0.870848
937.817872 0.83073
937.948242 0.73272
938.07863 0.662799
938.209037 0.634949
938.339461 0.59538
938.469904 0.704507
938.600365 0.845279
938.730844 0.857957
938.861341 0.734204
938.991856 0.688583
939.12239 0.838047
939.252941 0.920684
939.383511 0.908918
939.514099 0.920963
939.644705 0.933655
939.775329 0.935078
939.905971 0.927164
940.036631 0.888801
940.16731 0.817423
940.298007 0.820536
940.428722 0.844892
940.559455 0.867204
940.690206 0.884748
940.820976 0.898824
940.951763 0.893579
941.082569 0.869526
941.213393 0.776931
941.344235 0.73964
941.475096 0.834609
941.605974 0.895294
941.736871 0.916595
941.867786 0.860703
941.998719 0.777386
942.129671 0.845638
942.26064 0.875837
942.391628 0.83571
942.522634 0.876955
942.653658 0.90798
942.784701 0.791829
942.915761 0.560552
943.04684 0.519566
943.177937 0.654223
943.309053 0.73264
943.440186 0.854847
943.571338 0.936621
943.702508 0.945255
943.833696 0.89183
943.964903 0.763123
944.096127 0.681327
944.22737 0.627746
944.358631 0.520505
944.489911 0.615911
944.621208 0.711759
944.752524 0.788235
944.883859 0.837809
945.015211 0.888828
945.146582 0.879892
945.277971 0.868474
945.409378 0.903419
945.540803 0.84669
945.672247 0.712421
945.803709 0.695895
945.93519 0.747363
946.066688 0.794719
946.198205 0.685577
946.32974 0.597968
946.461294 0.726781
946.592865 0.866169
946.724455 0.883934
946.856064 0.862872
946.98769 0.832201
947.119335 0.767708
947.250999 0.766793
947.38268 0.867836
947.51438 0.896549
947.646098 0.823543
947.777834 0.779974
947.909589 0.839512
948.041362 0.899208
948.173154 0.812533
948.304963 0.6001
948.436791 0.551221
948.568638 0.74933
948.700502 0.882159
948.832385 0.886411
948.964287 0.893812
949.096207 0.931237
949.228145 0.942779
949.360101 0.924052
949.492076 0.816273
949.624069 0.651862
949.75608 0.682335
949.88811 0.771505
950.020158 0.750859
950.152224 0.716605
950.284309 0.593106
950.416412 0.581023
950.548534 0.788896
950.680674 0.905422
950.812832 0.914188
950.945009 0.933269
951.077204 0.942748
951.209417 0.938812
951.341649 0.923182
951.473899 0.913625
951.606168 0.901806
951.738455 0.87697
951.87076 0.783189
952.003084 0.677271
952.135426 0.727482
952.267787 0.784654
952.400165 0.740331
952.532563 0.695906
952.664979 0.780414
952.797413 0.826005
952.929865 0.826976
953.062336 0.774618
953.194826 0.808855
953.327333 0.891195
953.45986 0.913494
953.592404 0.912059
953.724967 0.86388
953.857549 0.79915
953.990149 0.859459
954.122767 0.898882
954.255404 0.891864
954.388059 0.851814
954.520733 0.773771
954.653425 0.656401
954.786135 0.752254
954.918864 0.870294
955.051612 0.907972
955.184378 0.902312
955.317162 0.905773
955.449965 0.864264
955.582786 0.757903
955.715626 0.753561
955.848484 0.772959
955.981361 0.753526
956.114256 0.839554
956.24717 0.928792
956.380102 0.915088
956.513052 0.837032
956.646022 0.786907
956.779009 0.732725
956.912015 0.737051
957.04504 0.832447
957.178083 0.855386
957.311144 0.857978
957.444224 0.877876
957.577323 0.9268
957.71044 0.953478
957.843575 0.941966
957.976729 0.924796
958.109902 0.877413
958.243093 0.760172
958.376303 0.741473
958.509531 0.856393
958.642777 0.932966
958.776042 0.931706
958.909326 0.89399
959.042628 0.825556
959.175949 0.74863
959.309288 0.753269
959.442646 0.771146
959.576022 0.808987
959.709417 0.84548
959.842831 0.888774
959.976263 0.875428
960.109713 0.855115
960.243182 0.897912
960.37667 0.93357
960.510176 0.93927
960.643701 0.877564
960.777244 0.800781
960.910806 0.833604
961.044386 0.888575
961.177985 0.9056
961.311603 0.89892
961.445239 0.932783
961.578894 0.925541
961.712567 0.872128
961.846259 0.883369
961.979969 0.909342
962.113698 0.877169
962.247446 0.83646
962.381212 0.802574
962.514997 0.828758
962.648801 0.878225
962.782623 0.864368
962.916463 0.855225
963.050323 0.90284
963.1842 0.93652
963.318097 0.955001
963.452012 0.966502
963.585946 0.961831
963.719898 0.921966
963.853869 0.825918
963.987858 0.784828
964.121867 0.862479
964.255893 0.904384
964.389939 0.918963
964.524003 0.933622
964.658086 0.887334
964.792187 0.800458
964.926307 0.838472
965.060446 0.914551
965.194603 0.94075
965.328779 0.946137
965.462973 0.935888
965.597187 0.922026
965.731419 0.924348
965.865669 0.932501
965.999938 0.935212
966.134226 0.941233
966.268533 0.912384
966.402858 0.852355
966.537202 0.817177
966.671565 0.865385
966.805946 0.915102
966.940346 0.926182
967.074764 0.92981
967.209202 0.904597
967.343658 0.894539
967.478132 0.941835
967.612626 0.972341
967.747138 0.975855
967.881669 0.975675
968.016218 0.970439
968.150786 0.931023
968.285373 0.877885
968.419979 0.907616
968.554603 0.953846
968.689246 0.967776
968.823908 0.966884
968.958588 0.963454
969.093287 0.964212
969.228005 0.96733
969.362742 0.96199
969.497497 0.95281
969.632271 0.960066
969.767064 0.965149
969.901876 0.966986
970.036706 0.96218
970.171555 0.954402
970.306423 0.927652
970.44131 0.90682
970.576215 0.944547
970.711139 0.971312
970.846082 0.972084
970.981043 0.963387
971.116024 0.951739
971.251023 0.962777
971.386041 0.972198
971.521077 0.968366
971.656133 0.938571
971.791207 0.90395
971.9263 0.938416
972.061412 0.970388
972.196542 0.975016
972.331691 0.972362
972.46686 0.953238
972.602046 0.919955
972.737252 0.92281
972.872477 0.950658
973.00772 0.961796
973.142982 0.958705
973.278263 0.95249
973.413562 0.960746
973.548881 0.964064
973.684218 0.937285
973.819574 0.887765
973.954949 0.872915
974.090343 0.921892
974.225756 0.961939
974.361187 0.96525
974.496637 0.926214
974.632106 0.883717
974.767594 0.927058
974.903101 0.962058
975.038626 0.934919
975.174171 0.897233
975.309734 0.93353
975.445316 0.956619
975.580917 0.93609
975.716537 0.922457
975.852176 0.910387
975.987833 0.889006
976.123509 0.92037
976.259205 0.952238
976.394919 0.933655
976.530652 0.90542
976.666403 0.922607
976.802174 0.942149
976.937964 0.959678
977.073772 0.966266
977.209599 0.971603
977.345446 0.975283
977.481311 0.966322
977.617195 0.952434
977.753098 0.954617
977.889019 0.956341
978.02496 0.952364
978.160919 0.945338
978.296898 0.948013
978.432895 0.930122
978.568911 0.919575
978.704947 0.95092
978.841001 0.964523
978.977074 0.958793
979.113166 0.963441
979.249276 0.951763
979.385406 0.926742
979.521555 0.921442
979.657722 0.920703
979.793909 0.94855
979.930114 0.970249
980.066339 0.962415
980.202582 0.945218
980.338844 0.937221
980.475126 0.920357
980.611426 0.936668
980.747745 0.964645
980.884083 0.975357
981.02044 0.976064
981.156816 0.974344
981.293211 0.973741
981.429625 0.969361
981.566057 0.96463
981.702509 0.967835
981.83898 0.966593
981.97547 0.965275
982.111978 0.96956
982.248506 0.972942
982.385053 0.970945
982.521618 0.969725
982.658203 0.955027
982.794807 0.93477
982.931429 0.950177
983.068071 0.971568
983.204732 0.975639
983.341411 0.967093
983.47811 0.96
983.614827 0.970035
983.751564 0.976326
983.88832 0.975309
984.025094 0.976434
984.161888 0.976834
984.298701 0.975675
984.435532 0.971509
984.572383 0.963162
984.709253 0.963633
984.846141 0.969482
984.983049 0.965087
985.119976 0.957016
985.256922 0.965553
985.393887 0.973978
985.530871 0.976632
985.667874 0.977942
985.804896 0.977419
985.941937 0.976488
986.078997 0.978039
986.216076 0.978998
986.353174 0.978769
986.490292 0.979284
986.627428 0.978817
986.764583 0.977389
986.901758 0.976822
987.038951 0.975647
987.176164 0.974752
987.313396 0.973997
987.450646 0.973213
987.587916 0.969555
987.725205 0.972107
987.862513 0.977458
987.99984 0.978334
988.137186 0.976826
988.274552 0.97762
988.411936 0.979218
988.54934 0.979645
988.686762 0.979262
988.824204 0.979309
988.961665 0.97957
989.099145 0.979315
989.236644 0.979139
989.374162 0.979164
989.511699 0.978994
989.649255 0.978209
989.786831 0.977788
989.924425 0.977123
990.062039 0.974953
990.199672 0.972973
990.337324 0.975479
990.474995 0.978336
990.612685 0.979383
990.750395 0.979427
990.888123 0.979517
991.025871 0.978916
991.163638 0.978006
991.301424 0.978349
991.439229 0.979253
991.577053 0.979806
991.714897 0.979743
991.85276 0.979525
991.990641 0.979746
992.128542 0.979275
992.266462 0.978613
992.404402 0.979328
992.54236 0.979724
992.680338 0.979112
992.818335 0.976543
992.956351 0.973882
993.094386 0.976372
993.23244 0.978623
993.370514 0.979197
993.508607 0.979707
993.646719 0.979781
993.78485 0.97964
993.923 0.979931
994.06117 0.98009
994.199359 0.979783
994.337567 0.979491
994.475794 0.979541
994.614041 0.980067
994.752306 0.980345
994.890591 0.980358
995.028895 0.980391
995.167219 0.980181
995.305561 0.979755
995.443923 0.979787
995.582304 0.980094
995.720704 0.980077
995.859124 0.979617
995.997562 0.979524
996.13602 0.980057
996.274498 0.980366
996.412994 0.980357
996.55151 0.980441
996.690045 0.980377
996.828599 0.979852
996.967173 0.979383
997.105765 0.979895
997.244377 0.980291
997.383009 0.980443
997.521659 0.980565
997.660329 0.980485
997.799018 0.979838
997.937727 0.979149
998.076455 0.979822
998.215201 0.980465
998.353968 0.980592
998.492753 0.980291
998.631558 0.97981
998.770382 0.979973
998.909226 0.980211
999.048089 0.980226
999.186971 0.980184
999.325872 0.980305
999.464793 0.979704
999.603733 0.978812
999.742692 0.97962
999.881671 0.980276
1000.02067 0.979631
1000.15969 0.978985
1000.29872 0.979815
1000.43778 0.98054
1000.57685 0.980738
1000.71595 0.980795
1000.85506 0.980806
1000.9942 0.98077
1001.13335 0.980451
1001.27252 0.979818
1001.41171 0.979627
1001.55092 0.980001
1001.69015 0.98004
1001.8294 0.977575
1001.96867 0.974376
1002.10796 0.976567
1002.24727 0.979101
1002.38659 0.97893
1002.52594 0.978649
1002.6653 0.979063
1002.80469 0.980013
1002.94409 0.98063
1003.08352 0.980841
1003.22296 0.980899
1003.36242 0.980889
1003.5019 0.980849
1003.64141 0.980774
1003.78093 0.980223
1003.92047 0.979083
1004.06002 0.978996
1004.1996 0.98004
1004.3392 0.980016
1004.47882 0.97944
1004.61846 0.980221
1004.75811 0.980827
1004.89779 0.980671
1005.03748 0.980362
1005.1772 0.980533
1005.31693 0.980695
1005.45669 0.979916
1005.59646 0.979
1005.73625 0.979992
1005.87606 0.980826
1006.01589 0.980672
1006.15575 0.980344
1006.29562 0.980655
1006.43551 0.980881
1006.57541 0.98063
1006.71534 0.980322
1006.85529 0.980672
1006.99526 0.980858
1007.13524 0.980482
1007.27525 0.980154
1007.41528 0.980564
1007.55532 0.980746
1007.69539 0.980631
1007.83547 0.980165
1007.97557 0.979163
1008.1157 0.979309
1008.25584 0.980172
1008.396 0.980394
1008.53618 0.980564
1008.67638 0.98078
1008.81661 0.979933
1008.95685 0.978725
1009.0971 0.979397
1009.23738 0.979242
1009.37768 0.977703
1009.518 0.977156
1009.65834 0.978857
1009.7987 0.979768
1009.93907 0.980074
1010.07947 0.979589
1010.21988 0.979378
1010.36032 0.98028
1010.50077 0.980873
1010.64125 0.980976
1010.78174 0.980793
1010.92225 0.980645
1011.06279 0.980847
1011.20334 0.980985
1011.34391 0.981033
1011.4845 0.98099
1011.62511 0.98078
1011.76574 0.980399
1011.90639 0.98047
1012.04706 0.979923
1012.18775 0.979011
1012.32846 0.980131
1012.46919 0.981095
1012.60994 0.981165
1012.7507 0.981079
1012.89149 0.981117
1013.0323 0.980837
1013.17312 0.980421
1013.31397 0.980822
1013.45483 0.981219
1013.59572 0.981299
1013.73662 0.98131
1013.87755 0.981314
1014.01849 0.981294
1014.15945 0.981083
1014.30044 0.980485
1014.44144 0.980119
1014.58246 0.980375
1014.7235 0.980348
1014.86456 0.980732
1015.00564 0.981198
1015.14675 0.981337
1015.28787 0.98124
1015.429 0.980468
1015.57016 0.97959
1015.71134 0.980443
1015.85254 0.981229
1015.99376 0.98137
1016.135 0.98139
1016.27625 0.981396
1016.41753 0.981399
1016.55883 0.981357
1016.70014 0.981043
1016.84148 0.980521
1016.98284 0.980614
1017.12421 0.981121
1017.26561 0.981215
1017.40702 0.980745
1017.54846 0.980425
1017.68991 0.980965
1017.83138 0.981328
1017.97288 0.981351
1018.11439 0.98141
1018.25592 0.981452
1018.39747 0.981432
1018.53905 0.981279
1018.68064 0.981125
1018.82225 0.981305
1018.96388 0.981444
1019.10553 0.981192
1019.2472 0.979451
1019.38889 0.97751
1019.5306 0.979426
1019.67233 0.981191
1019.81408 0.981489
1019.95585 0.98151
1020.09764 0.981482
1020.23944 0.98125
1020.38127 0.980848
1020.52312 0.980897
1020.66499 0.9813
1020.80687 0.981488
1020.94878 0.981486
1021.09071 0.981422
1021.23265 0.981328
1021.37462 0.981329
1021.51661 0.980943
1021.65861 0.980248
1021.80064 0.9804
1021.94268 0.981157
1022.08475 0.981526
1022.22683 0.981577
1022.36893 0.981583
1022.51106 0.981581
1022.6532 0.981463
1022.79537 0.980664
1022.93755 0.979765
1023.07975 0.98066
1023.22198 0.981423
1023.36422 0.981224
1023.50648 0.980776
1023.64876 0.980577
1023.79106 0.979276
1023.93339 0.977942
1024.07573 0.97917
1024.21809 0.980937
1024.36047 0.981562
1024.50287 0.981638
1024.64529 0.981641
1024.78773 0.981621
1024.93019 0.981587
1025.07267 0.981529
1025.21517 0.981337
1025.35769 0.981254
1025.50023 0.981432
1025.64279 0.981231
1025.78537 0.980856
1025.92797 0.981253
1026.07059 0.981533
1026.21323 0.981283
1026.35588 0.981046
1026.49856 0.981386
1026.64126 0.981654
1026.78398 0.981694
1026.92672 0.981691
1027.06947 0.981594
1027.21225 0.981103
1027.35505 0.980413
1027.49787 0.980216
1027.6407 0.980257
1027.78356 0.981068
1027.92644 0.981608
1028.06933 0.981705
1028.21225 0.981721
1028.35519 0.981654
1028.49814 0.98119
1028.64112 0.980597
1028.78411 0.980927
1028.92713 0.981374
1029.07016 0.981616
1029.21322 0.981691
1029.3563 0.981576
1029.49939 0.98145
1029.64251 0.981606
1029.78564 0.981711
1029.9288 0.981576
1030.07197 0.981411
1030.21517 0.981589
1030.35838 0.981743
1030.50162 0.981755
1030.64487 0.98173
1030.78814 0.981632
1030.93144 0.981516
1031.07475 0.981642
1031.21809 0.981717
1031.36144 0.98146
1031.50482 0.981154
1031.64821 0.981447
1031.79162 0.981693
1031.93506 0.981753
1032.07851 0.981783
1032.22199 0.981793
1032.36548 0.981796
1032.50899 0.981797
1032.65253 0.981799
1032.79608 0.9818
1032.93965 0.981801
1033.08325 0.981778
1033.22686 0.981607
1033.37049 0.981405
1033.51415 0.981557
1033.65782 0.981678
1033.80151 0.981749
1033.94523 0.981799
1034.08896 0.98181
1034.23271 0.981811
1034.37649 0.98181
1034.52028 0.981799
1034.66409 0.981782
1034.80793 0.981781
1034.95178 0.981802
1035.09565 0.981814
1035.23955 0.981815
1035.38346 0.981808
1035.52739 0.981791
1035.67135 0.98178
1035.81532 0.981768
1035.95931 0.981694
1036.10333 0.981637
1036.24736 0.981721
1036.39141 0.981739
1036.53548 0.981638
1036.67958 0.981571
1036.82369 0.981567
1036.96783 0.981571
1037.11198 0.981546
1037.25615 0.981524
1037.40035 0.981491
1037.54456 0.981541
1037.68879 0.981616
1037.83305 0.981652
1037.97732 0.981719
1038.12161 0.981772
1038.26593 0.981776
1038.41026 0.981727
1038.55462 0.98167
1038.69899 0.981683
1038.84338 0.981677
1038.9878 0.981658
1039.13223 0.98168
1039.27669 0.981677
1039.42116 0.981641
1039.56566 0.98164
1039.71017 0.981656
1039.8547 0.981643
1039.99926 0.981672
1040.14383 0.981656
1040.28843 0.981655
1040.43304 0.981674
1040.57768 0.981657
1040.72233 0.981681
1040.86701 0.981686
1041.01171 0.981681
1041.15642 0.98161
1041.30116 0.981547
1041.44591 0.981614
1041.59069 0.981674
1041.73548 0.981691
1041.8803 0.981688
1042.02514 0.981684
1042.16999 0.981641
1042.31487 0.981596
1042.45977 0.981634
1042.60468 0.981665
1042.74962 0.981659
1042.89458 0.981653
1043.03956 0.981653
1043.18455 0.981638
1043.32957 0.981621
1043.47461 0.981625
1043.61967 0.981629
1043.76474 0.981621
1043.90984 0.981607
1044.05496 0.98159
1044.2001 0.981587
1044.34526 0.981585
1044.49044 0.981575
1044.63564 0.981562
1044.78086 0.981537
1044.9261 0.98151
1045.07136 0.981509
1045.21664 0.981506
1045.36194 0.98147
1045.50726 0.981424
1045.6526 0.981433
1045.79796 0.981449
1045.94334 0.981443
1046.08874 0.981431
1046.23416 0.981417
1046.3796 0.981404
1046.52506 0.981391
1046.67055 0.981377
1046.81605 0.981362
1046.96157 0.981339
1047.10711 0.981313
1047.25268 0.981291
1047.39826 0.981263
1047.54386 0.981261
1047.68949 0.981259
1047.83513 0.98124
1047.9808 0.981216
1048.12648 0.9812
1048.27218 0.981182
1048.41791 0.981161
1048.56365 0.981137
1048.70942 0.98111
1048.85521 0.981046
1049.00101 0.980782
1049.14684 0.980336
1049.29268 0.980193
1049.43855 0.980202
1049.58444 0.980182
1049.73035 0.980265
1049.87627 0.980265
1050.02222 0.980264
1050.16819 0.980404
1050.31418 0.980526
1050.46019 0.980597
1050.60622 0.980642
1050.75227 0.980637
1050.89833 0.980569
1051.04442 0.980504
1051.19054 0.98043
1051.33667 0.980283
1051.48282 0.980204
1051.62899 0.9802
1051.77518 0.98005
1051.92139 0.979975
1052.06762 0.980035
1052.21388 0.979916
1052.36015 0.979861
1052.50644 0.979922
1052.65276 0.979867
1052.79909 0.979837
1052.94544 0.979716
1053.09182 0.979671
1053.23821 0.979687
1053.38463 0.979628
1053.53106 0.979598
1053.67752 0.979527
1053.824 0.979483
1053.97049 0.979408
1054.11701 0.979356
1054.26355 0.979278
1054.41011 0.979216
1054.55668 0.979123
1054.70328 0.979044
1054.8499 0.978973
1054.99654 0.978917
1055.1432 0.978833
1055.28988 0.97873
1055.43658 0.978638
1055.5833 0.978523
1055.73004 0.978412
1055.8768 0.978318
1056.02359 0.978223
1056.17039 0.97812
1056.31721 0.978026
1056.46406 0.977926
1056.61092 0.977814
1056.7578 0.977701
1056.90471 0.977565
1057.05163 0.977423
1057.19858 0.977327
1057.34554 0.977217
1057.49253 0.977103
1057.63954 0.977003
1057.78656 0.976888
1057.93361 0.976732
1058.08068 0.97657
1058.22777 0.976506
1058.37488 0.976418
1058.52201 0.976292
1058.66916 0.976205
1058.81633 0.976076
1058.96352 0.975882
1059.11073 0.97577
1059.25796 0.975776
1059.40521 0.975748
1059.55248 0.975682
1059.69978 0.975618
1059.84709 0.975548
1059.99442 0.975418
1060.14178 0.975279
1060.28915 0.975297
1060.43655 0.975305
1060.58397 0.97528
1060.7314 0.975243
1060.87886 0.975178
1061.02634 0.975007
1061.17383 0.97482
1061.32135 0.974911
1061.46889 0.974982
1061.61645 0.974947
1061.76403 0.974894
1061.91163 0.974839
1062.05925 0.974743
1062.20689 0.974412
1062.35456 0.974032
1062.50224 0.974224
1062.64994 0.974267
1062.79767 0.974042
1062.94541 0.974029
1063.09317 0.974038
1063.24096 0.973906
1063.38877 0.973705
1063.53659 0.973632
1063.68444 0.973594
1063.83231 0.973522
1063.98019 0.973507
1064.1281 0.973513
1064.27603 0.973321
1064.42398 0.973195
1064.57195 0.972905
1064.71994 0.9723
1064.86795 0.972531
1065.01599 0.972825
1065.16404 0.972714
1065.31211 0.972807
1065.46021 0.972885
1065.60832 0.972945
1065.75645 0.972638
1065.90461 0.972384
1066.05279 0.972779
1066.20098 0.973001
1066.3492 0.973
1066.49744 0.97291
1066.6457 0.973141
1066.79398 0.973285
1066.94228 0.973043
1067.0906 0.972784
1067.23894 0.973334
1067.3873 0.973527
1067.53568 0.972839
1067.68408 0.97218
1067.83251 0.972277
1067.98095 0.972726
1068.12942 0.97323
1068.2779 0.973557
1068.42641 0.973984
1068.57493 0.974413
1068.72348 0.974538
1068.87205 0.97505
1069.02064 0.975336
1069.16925 0.975176
1069.31788 0.97448
1069.46653 0.974124
1069.6152 0.975368
1069.76389 0.976018
1069.9126 0.975799
1070.06134 0.975511
1070.21009 0.975062
1070.35886 0.976253
1070.50766 0.977223
1070.65648 0.977348
1070.80531 0.977383
1070.95417 0.977532
1071.10305 0.977776
1071.25195 0.978089
1071.40087 0.978127
1071.54981 0.977939
1071.69877 0.977957
1071.84775 0.97787
1071.99675 0.977821
1072.14577 0.977871
1072.29482 0.977652
1072.44388 0.976989
1072.59297 0.977138
1072.74207 0.978497
1072.8912 0.978937
1073.04035 0.978779
1073.18951 0.979227
1073.3387 0.979681
1073.48791 0.979976
1073.63714 0.980226
1073.78639 0.980383
1073.93567 0.980468
1074.08496 0.980419
1074.23427 0.980292
1074.38361 0.98001
1074.53296 0.977083
1074.68234 0.972531
1074.83173 0.974115
1074.98115 0.978402
1075.13059 0.980536
1075.28005 0.980986
1075.42953 0.981061
1075.57903 0.981043
1075.72855 0.981175
1075.87809 0.98143
1076.02765 0.981553
1076.17723 0.981394
1076.32684 0.98079
1076.47646 0.980465
1076.62611 0.981244
1076.77578 0.981813
1076.92546 0.981836
1077.07517 0.981341
1077.2249 0.979864
1077.37465 0.974611
1077.52442 0.969006
1077.67421 0.975358
1077.82402 0.981124
1077.97386 0.982011
1078.12371 0.981415
1078.27359 0.980243
1078.42348 0.979974
1078.5734 0.981241
1078.72333 0.982243
1078.87329 0.982514
1079.02327 0.982564
1079.17327 0.982506
1079.32329 0.981986
1079.47333 0.981301
1079.6234 0.981241
1079.77348 0.98099
1079.92358 0.980968
1080.07371 0.976077
1080.22385 0.969987
1080.37402 0.976035
1080.52421 0.980469
1080.67442 0.979903
1080.82465 0.980583
1080.9749 0.98089
1081.12517 0.981018
1081.27546 0.977702
1081.42577 0.97388
1081.57611 0.977949
1081.72646 0.980942
1081.87684 0.980294
1082.02723 0.981138
1082.17765 0.982501
1082.32809 0.982832
1082.47855 0.982695
1082.62903 0.982962
1082.77953 0.983205
1082.93005 0.983259
1083.08059 0.983205
1083.23116 0.98205
1083.38174 0.974909
1083.53235 0.965352
1083.68297 0.97036
1083.83362 0.979273
1083.98429 0.981115
1084.13498 0.979963
1084.28569 0.980464
1084.43642 0.979144
1084.58717 0.978108
1084.73795 0.980918
1084.88874 0.982832
1085.03955 0.982502
1085.19039 0.981112
1085.34125 0.980468
1085.49213 0.98097
1085.64303 0.981863
1085.79395 0.980534
1085.94489 0.972707
1086.09585 0.955994
1086.24683 0.946222
1086.39784 0.964323
1086.54886 0.978717
1086.69991 0.9811
1086.85097 0.981805
1087.00206 0.978565
1087.15317 0.974045
1087.3043 0.978213
1087.45545 0.982392
1087.60662 0.981822
1087.75782 0.979932
1087.90903 0.98133
1088.06026 0.983123
1088.21152 0.983296
1088.3628 0.981325
1088.5141 0.979084
1088.66541 0.981271
1088.81675 0.982148
1088.96812 0.978002
1089.1195 0.973486
1089.2709 0.975786
1089.42233 0.976658
1089.57377 0.975349
1089.72524 0.979813
1089.87673 0.982783
1090.02823 0.980099
1090.17976 0.970516
1090.33131 0.961408
1090.48289 0.96421
1090.63448 0.971089
1090.78609 0.978764
1090.93773 0.982845
1091.08938 0.983132
1091.24106 0.982552
1091.39276 0.983098
1091.54448 0.983668
1091.69622 0.983455
1091.84798 0.982689
1091.99976 0.982551
1092.15157 0.983174
1092.30339 0.980896
1092.45524 0.963751
1092.6071 0.937003
1092.75899 0.940731
1092.9109 0.962693
1093.06283 0.977546
1093.21478 0.979893
1093.36676 0.977625
1093.51875 0.980175
1093.67076 0.979598
1093.8228 0.976394
1093.97486 0.979636
1094.12694 0.981408
1094.27903 0.980332
1094.43116 0.978548
1094.5833 0.97208
1094.73546 0.961246
1094.88764 0.957015
1095.03985 0.969755
1095.19208 0.979404
1095.34432 0.980688
1095.49659 0.981571
1095.64888 0.977484
1095.80119 0.961056
1095.95352 0.94767
1096.10588 0.957898
1096.25825 0.965073
1096.41065 0.973722
1096.56306 0.979267
1096.7155 0.982239
1096.86796 0.983731
1097.02044 0.983353
1097.17294 0.982448
1097.32547 0.982019
1097.47801 0.977563
1097.63058 0.968438
1097.78316 0.959985
1097.93577 0.952974
1098.0884 0.961782
1098.24105 0.972345
1098.39372 0.976126
1098.54641 0.972391
1098.69913 0.967997
1098.85186 0.964715
1099.00462 0.967674
1099.1574 0.970119
1099.31019 0.97163
1099.46301 0.960666
1099.61586 0.941087
1099.76872 0.93262
1099.9216 0.946911
1100.07451 0.967263
1100.22743 0.97407
1100.38038 0.970057
1100.53335 0.960404
1100.68634 0.965708
1100.83935 0.9638
1100.99238 0.946761
1101.14544 0.952689
1101.29851 0.971523
1101.45161 0.980638
1101.60473 0.977771
1101.75786 0.9615
1101.91102 0.939019
1102.06421 0.937161
1102.21741 0.955033
1102.37063 0.961792
1102.52388 0.953467
1102.67714 0.952685
1102.83043 0.961531
1102.98374 0.953642
1103.13707 0.9462
1103.29042 0.955147
1103.4438 0.964034
1103.59719 0.965043
1103.75061 0.972944
1103.90405 0.976413
1104.0575 0.960366
1104.21098 0.930251
1104.36448 0.918339
1104.51801 0.93672
1104.67155 0.959167
1104.82512 0.961266
1104.9787 0.967441
1105.13231 0.97549
1105.28594 0.972965
1105.43959 0.954551
1105.59326 0.933011
1105.74696 0.946946
1105.90067 0.955129
1106.05441 0.94512
1106.20816 0.931646
1106.36194 0.919693
1106.51574 0.920122
1106.66957 0.928409
1106.82341 0.958455
1106.97727 0.978401
1107.13116 0.978828
1107.28507 0.970712
1107.43899 0.96576
1107.59294 0.965546
1107.74692 0.957852
1107.90091 0.944059
1108.05492 0.914915
1108.20896 0.913252
1108.36302 0.924303
1108.51709 0.922204
1108.67119 0.927178
1108.82531 0.926106
1108.97946 0.94795
1109.13362 0.954257
1109.28781 0.946297
1109.44201 0.945418
1109.59624 0.954249
1109.75049 0.952376
1109.90476 0.948776
1110.05906 0.961045
1110.21337 0.964689
1110.36771 0.932668
1110.52206 0.87156
1110.67644 0.868901
1110.83084 0.897119
1110.98526 0.916657
1111.13971 0.913966
1111.29417 0.851815
1111.44866 0.818303
1111.60316 0.874812
1111.75769 0.946299
1111.91224 0.968649
1112.06681 0.955982
1112.22141 0.93399
1112.37602 0.924168
1112.53066 0.939022
1112.68532 0.937161
1112.84 0.897177
1112.9947 0.815011
1113.14942 0.781544
1113.30416 0.772681
1113.45893 0.834171
1113.61371 0.843463
1113.76852 0.787234
1113.92335 0.797799
1114.0782 0.891088
1114.23308 0.934102
1114.38797 0.95123
1114.54289 0.958645
1114.69783 0.93666
1114.85278 0.894389
1115.00776 0.765323
1115.16277 0.614501
1115.31779 0.716345
1115.47284 0.795529
1115.6279 0.851915
1115.78299 0.884707
1115.9381 0.905113
1116.09323 0.867543
1116.24839 0.737479
1116.40356 0.559979
1116.55876 0.47984
1116.71397 0.533101
1116.86921 0.620798
1117.02447 0.770417
1117.17976 0.78074
1117.33506 0.642215
1117.49039 0.626338
1117.64573 0.818471
1117.8011 0.936763
1117.95649 0.930068
1118.1119 0.870091
1118.26734 0.76594
1118.42279 0.691449
1118.57827 0.805989
1118.73377 0.821716
1118.88929 0.669293
1119.04483 0.607539
1119.20039 0.605549
1119.35598 0.598546
1119.51159 0.695163
1119.66721 0.843681
1119.82286 0.83199
1119.97854 0.731606
1120.13423 0.74832
1120.28994 0.680107
1120.44568 0.60726
1120.60144 0.762392
1120.75722 0.874813
1120.91302 0.916866
1121.06884 0.910579
1121.22469 0.775209
1121.38055 0.63181
1121.53644 0.753725
1121.69235 0.830971
1121.84828 0.665366
1122.00423 0.474479
1122.16021 0.553177
1122.31621 0.553402
1122.47222 0.444456
1122.62826 0.446267
1122.78433 0.486636
1122.94041 0.699792
1123.09651 0.867747
1123.25264 0.909851
1123.40879 0.824526
1123.56496 0.5841
1123.72115 0.389014
1123.87736 0.494049
1124.0336 0.764117
1124.18986 0.865323
1124.34613 0.809091
1124.50243 0.809921
1124.65876 0.882289
1124.8151 0.894319
1124.97147 0.844723
1125.12785 0.755148
1125.28426 0.596518
1125.44069 0.340305
1125.59714 0.268085
1125.75362 0.445415
1125.91011 0.707177
1126.06663 0.730199
1126.22317 0.603788
1126.37973 0.675487
1126.53632 0.789193
1126.69292 0.825962
1126.84955 0.812358
1127.0062 0.862909
1127.16287 0.836083
1127.31956 0.702226
1127.47627 0.638843
1127.63301 0.678261
1127.78976 0.578421
1127.94654 0.563881
1128.10334 0.759676
1128.26017 0.849488
1128.41701 0.753628
1128.57388 0.680722
1128.73077 0.770563
1128.88767 0.744515
1129.04461 0.674285
1129.20156 0.735878
1129.35854 0.748509
1129.51553 0.708262
1129.67255 0.547465
1129.82959 0.530287
1129.98665 0.655104
1130.14374 0.665129
1130.30085 0.733098
1130.45797 0.850658
1130.61512 0.913822
1130.7723 0.908918
1130.92949 0.898036
1131.0867 0.919427
1131.24394 0.931457
1131.4012 0.8842
1131.55848 0.829411
1131.71578 0.890044
1131.87311 0.927176
1132.03046 0.898229
1132.18782 0.875881
1132.34521 0.80952
1132.50263 0.723604
1132.66006 0.811026
1132.81752 0.878707
1132.975 0.859167
1133.1325 0.789614
1133.29002 0.670071
1133.44756 0.610511
1133.60513 0.519769
1133.76271 0.602392
1133.92032 0.665881
1134.07795 0.540247
1134.23561 0.571926
1134.39328 0.570693
1134.55098 0.308315
1134.7087 0.13377
1134.86644 0.183183
1135.0242 0.338358
1135.18199 0.432652
1135.33979 0.583313
1135.49762 0.790298
1135.65547 0.876396
1135.81334 0.803346
1135.97124 0.578
1136.12916 0.477264
1136.28709 0.699534
1136.44505 0.867581
1136.60304 0.907467
1136.76104 0.91825
1136.91907 0.929484
1137.07711 0.942802
1137.23518 0.939772
1137.39328 0.891417
1137.55139 0.769239
1137.70953 0.698667
1137.86768 0.834199
1138.02586 0.926133
1138.18407 0.914077
1138.34229 0.791422
1138.50054 0.641382
1138.6588 0.739104
1138.81709 0.881159
1138.97541 0.944388
1139.13374 0.962123
1139.2921 0.964464
1139.45047 0.956125
1139.60887 0.91722
1139.7673 0.807467
1139.92574 0.688422
1140.08421 0.738477
1140.24269 0.881272
1140.4012 0.944393
1140.55974 0.9264
1140.71829 0.78571
1140.87687 0.628262
1141.03547 0.751934
1141.19409 0.883642
1141.35273 0.823456
1141.51139 0.711402
1141.67008 0.810415
1141.82879 0.90861
1141.98752 0.877599
1142.14627 0.789306
1142.30505 0.821743
1142.46384 0.903638
1142.62266 0.919559
1142.7815 0.905146
1142.94037 0.884298
1143.09925 0.909988
1143.25816 0.947849
1143.41709 0.946795
1143.57604 0.855428
1143.73501 0.72809
1143.89401 0.758774
1144.05303 0.792204
1144.21207 0.664276
1144.37113 0.531277
1144.53021 0.709108
1144.68932 0.858422
1144.84845 0.785106
1145.0076 0.687595
1145.16677 0.780756
1145.32596 0.760147
1145.48518 0.664817
1145.64442 0.776989
1145.80368 0.800338
1145.96296 0.726881
1146.12227 0.797056
1146.2816 0.817443
1146.44095 0.735369
1146.60032 0.596966
1146.75971 0.619598
1146.91913 0.705434
1147.07857 0.67063
1147.23803 0.678705
1147.39751 0.616141
1147.55701 0.591821
1147.71654 0.731494
1147.87609 0.88275
1148.03566 0.939552
1148.19525 0.954282
1148.35487 0.952416
1148.51451 0.903897
1148.67417 0.7538
1148.83385 0.647884
1148.99356 0.787812
1149.15328 0.917594
1149.31303 0.930156
1149.4728 0.828707
1149.63259 0.615264
1149.79241 0.530619
1149.95225 0.647528
1150.11211 0.751828
1150.27199 0.851143
1150.43189 0.910206
1150.59182 0.913919
1150.75177 0.847893
1150.91174 0.787262
1151.07173 0.820247
1151.23175 0.791091
1151.39179 0.787988
1151.55185 0.891894
1151.71193 0.930983
1151.87203 0.823547
1152.03216 0.701518
1152.19231 0.805152
1152.35248 0.874868
1152.51268 0.705956
1152.67289 0.503553
1152.83313 0.671771
1152.99339 0.889225
1153.15367 0.949146
1153.31398 0.937469
1153.4743 0.898904
1153.63465 0.830105
1153.79503 0.788405
1153.95542 0.778604
1154.11584 0.749967
1154.27627 0.749255
1154.43674 0.771449
1154.59722 0.871749
1154.75772 0.90943
1154.91825 0.865337
1155.0788 0.872902
1155.23938 0.899147
1155.39997 0.876067
1155.56059 0.822563
1155.72123 0.726795
1155.88189 0.791026
1156.04257 0.907104
1156.20328 0.938695
1156.36401 0.887398
1156.52476 0.829571
1156.68553 0.891663
1156.84633 0.945233
1157.00715 0.935414
1157.16799 0.899678
1157.32885 0.9056
1157.48974 0.90498
1157.65064 0.847133
1157.81157 0.758773
1157.97253 0.829033
1158.1335 0.927947
1158.2945 0.935317
1158.45552 0.916963
1158.61656 0.936396
1158.77763 0.889605
1158.93871 0.800839
1159.09982 0.864406
1159.26095 0.944661
1159.42211 0.950045
1159.58328 0.906754
1159.74448 0.870381
1159.9057 0.904981
1160.06695 0.910761
1160.22821 0.860294
1160.3895 0.797381
1160.55081 0.863467
1160.71214 0.908731
1160.8735 0.929998
1161.03488 0.948514
1161.19628 0.942951
1161.3577 0.92923
1161.51915 0.904793
1161.68062 0.925127
1161.84211 0.955975
1162.00362 0.953873
1162.16515 0.910085
1162.32671 0.857865
1162.48829 0.899937
1162.64989 0.954096
1162.81152 0.972702
1162.97317 0.977451
1163.13484 0.975115
1163.29653 0.970581
1163.45824 0.954047
1163.61998 0.916264
1163.78174 0.91021
1163.94352 0.946191
1164.10533 0.964315
1164.26716 0.969439
1164.42901 0.970368
1164.59088 0.96804
1164.75277 0.95815
1164.91469 0.940994
1165.07663 0.923261
1165.23859 0.910032
1165.40058 0.940178
1165.56259 0.945207
1165.72462 0.904301
1165.88667 0.896261
1166.04874 0.928544
1166.21084 0.959931
1166.37296 0.966362
1166.5351 0.943059
1166.69727 0.921267
1166.85946 0.939486
1167.02167 0.951938
1167.1839 0.951552
1167.34615 0.965996
1167.50843 0.968378
1167.67073 0.955775
1167.83306 0.953788
1167.9954 0.963549
1168.15777 0.964279
1168.32016 0.943776
1168.48257 0.939473
1168.64501 0.958466
1168.80747 0.967073
1168.96995 0.972497
1169.13245 0.96768
1169.29498 0.947573
1169.45753 0.945788
1169.6201 0.96845
1169.78269 0.980099
1169.94531 0.977995
1170.10795 0.970312
1170.27061 0.95693
1170.4333 0.950031
1170.596 0.952681
1170.75873 0.966554
1170.92148 0.961221
1171.08426 0.945284
1171.24706 0.962902
1171.40988 0.977836
1171.57272 0.979608
1171.73559 0.971183
1171.89847 0.963231
1172.06138 0.97006
1172.22432 0.959695
1172.38727 0.940248
1172.55025 0.959554
1172.71325 0.968576
1172.87628 0.958781
1173.03932 0.95906
1173.20239 0.9659
1173.36549 0.972232
1173.5286 0.959904
1173.69174 0.927155
1173.8549 0.893435
1174.01808 0.883993
1174.18129 0.896813
1174.34451 0.934434
1174.50777 0.970297
1174.67104 0.980543
1174.83433 0.977143
1174.99765 0.976404
1175.161 0.968531
1175.32436 0.940206
1175.48775 0.927942
1175.65116 0.957318
1175.81459 0.977735
1175.97804 0.983691
1176.14152 0.985418
1176.30502 0.984622
1176.46855 0.981107
1176.63209 0.977187
1176.79566 0.98097
1176.95925 0.982592
1177.12287 0.978957
1177.2865 0.967594
1177.45016 0.93145
1177.61385 0.888068
1177.77755 0.885026
1177.94128 0.931775
1178.10503 0.968397
1178.2688 0.961122
1178.4326 0.940422
1178.59642 0.959446
1178.76026 0.980022
1178.92412 0.985078
1179.08801 0.985159
1179.25192 0.980338
1179.41586 0.951866
1179.57981 0.911123
1179.74379 0.89939
1179.90779 0.70369
